#Wave		#Intensity
2001.974609	3895.743896
2001.265625	3532.611328
2000.556641	3553.166992
1999.845703	3411.594727
1999.136719	3446.259033
1998.427734	3523.189941
1997.718750	3522.597656
1997.007813	3331.817383
1996.298828	3595.363281
1995.587891	3460.967773
1994.876953	3425.183838
1994.167969	3544.276123
1993.457031	3526.085205
1992.746094	3469.197510
1992.035156	3528.418213
1991.324219	3489.135498
1990.613281	3446.349121
1989.902344	3540.704590
1989.191406	3483.861816
1988.480469	3595.753906
1987.769531	3486.206055
1987.058594	3580.491211
1986.345703	3407.746094
1985.634766	3403.661133
1984.921875	3357.434082
1984.210938	3507.859375
1983.498047	3377.371338
1982.787109	3562.844482
1982.074219	3499.073486
1981.361328	3480.941162
1980.648438	3536.491455
1979.935547	3535.897949
1979.222656	3542.318848
1978.509766	3534.710938
1977.796875	3534.117676
1977.083984	3484.447998
1976.371094	3480.358398
1975.658203	3553.364746
1974.943359	3514.227539
1974.230469	3436.569092
1973.517578	3562.083984
1972.802734	3515.960938
1972.089844	3557.387695
1971.375000	3521.782959
1970.660156	3447.688232
1969.945313	3573.095703
1969.232422	3520.011230
1968.517578	3543.909912
1967.802734	3504.839355
1967.087891	3549.715820
1966.373047	3605.067383
1965.658203	3583.486328
1964.941406	3593.372070
1964.226563	3540.345947
1963.511719	3634.099121
1962.796875	3588.071289
1962.080078	3625.894531
1961.365234	3555.435547
1960.648438	3505.951660
1959.931641	3543.769531
1959.216797	3626.955078
1958.500000	3727.563965
1957.783203	3573.395020
1957.066406	3625.132080
1956.349609	3544.289795
1955.632813	3536.720215
1954.916016	3539.614990
1954.199219	3615.729736
1953.482422	3653.471680
1952.765625	3551.778564
1952.048828	3662.702637
1951.330078	3630.729736
1950.613281	3525.607422
1949.894531	3657.379395
1949.177734	3569.700928
1948.458984	3746.687744
1947.742188	3672.949707
1947.023438	3644.487549
1946.304688	3522.066650
1945.585938	3719.821045
1944.867188	3677.448730
1944.148438	3562.040771
1943.429688	3665.783691
1942.710938	3599.099609
1941.992188	3518.530518
1941.273438	3594.418701
1940.554688	3632.049316
1939.833984	3826.044922
1939.115234	3731.593750
1938.394531	3717.073730
1937.675781	3681.718506
1936.955078	3760.975586
1936.236328	3680.486572
1935.515625	3770.131836
1934.794922	3831.979004
1934.074219	3595.349854
1933.353516	3768.240234
1932.632813	3753.732910
1931.912109	3673.325439
1931.191406	3696.987793
1930.470703	3651.291748
1929.750000	3726.953857
1929.029297	3736.729736
1928.306641	3857.406982
1927.585938	3652.315430
1926.865234	3772.966309
1926.142578	3713.447021
1925.419922	3643.556885
1924.699219	3795.314453
1923.976563	3735.821045
1923.253906	3659.038818
1922.533203	3783.028320
1921.810547	3740.869141
1921.087891	3716.024170
1920.365234	3826.104248
1919.642578	3925.770752
1918.919922	3828.283691
1918.195313	3910.628174
1917.472656	3750.948486
1916.750000	3815.995605
1916.025391	3929.404297
1915.302734	3787.077881
1914.578125	3834.812256
1913.855469	3699.457520
1913.130859	3871.521240
1912.408203	3832.890869
1911.683594	3780.463623
1910.958984	3838.514648
1910.234375	3806.811768
1909.509766	3878.641846
1908.785156	3940.097168
1908.060547	3856.648926
1907.335938	3890.495361
1906.611328	3762.253174
1905.886719	3868.509033
1905.160156	3792.022949
1904.435547	3932.705322
1903.710938	3890.695068
1902.984375	3886.600098
1902.257813	3806.716797
1901.533203	3733.748535
1900.806641	3781.339355
1900.080078	3983.861084
1899.355469	3883.358154
1898.628906	3882.710205
1897.902344	4002.516357
1897.175781	3884.855713
1896.449219	3915.171143
1895.722656	4045.231201
1894.996094	3910.425781
1894.267578	3951.037598
1893.541016	3991.635742
1892.814453	4080.345703
1892.085938	3969.682617
1891.359375	4041.184570
1890.630859	3968.358643
1889.904297	3861.204590
1889.175781	3905.211182
1888.447266	3842.746582
1887.718750	4082.451904
1886.992188	3930.721680
1886.263672	3998.713867
1885.535156	3977.456543
1884.806641	3935.618652
1884.076172	3910.947998
1883.347656	4109.241211
1882.619141	4053.683838
1881.890625	4097.584473
1881.160156	3963.195313
1880.431641	4048.229736
1879.703125	4047.555176
1878.972656	3954.360840
1878.242188	3936.571533
1877.513672	4042.106689
1876.783203	3938.684814
1876.052734	4071.579102
1875.322266	4022.967773
1874.591797	4035.990479
1873.861328	3929.215576
1873.130859	4072.289063
1872.400391	4078.453613
1871.669922	3988.829590
1870.939453	3947.120850
1870.208984	4148.232422
1869.476563	4109.929688
1868.746094	4075.058838
1868.013672	3992.345703
1867.283203	4046.361572
1866.550781	4192.617188
1865.820313	4195.335938
1865.087891	4116.073242
1864.355469	4108.557617
1863.623047	4019.091553
1862.890625	3963.796631
1862.158203	4126.987793
1861.425781	4143.365723
1860.693359	4169.975586
1859.960938	4169.281250
1859.228516	4114.006836
1858.496094	4133.786621
1857.761719	4088.766846
1857.029297	4139.230469
1856.294922	4227.175781
1855.562500	4035.599609
1854.828125	4058.783447
1854.093750	4061.515625
1853.361328	4088.093994
1852.626953	4060.164307
1851.892578	4219.552734
1851.158203	4171.180176
1850.423828	4221.553711
1849.689453	4248.083008
1848.955078	4101.032715
1848.220703	4113.961914
1847.486328	4256.170898
1846.750000	4326.897461
1846.015625	4159.524902
1845.281250	4165.634766
1844.544922	4304.339844
1843.810547	4222.039063
1843.074219	4146.562988
1842.337891	4217.237305
1841.603516	4155.377930
1840.867188	4280.380859
1840.130859	4374.773438
1839.394531	4258.582031
1838.658203	4244.292969
1837.921875	4294.510254
1837.185547	4300.585449
1836.449219	4269.327148
1835.712891	4238.079102
1834.974609	4250.945313
1834.238281	4270.591309
1833.501953	4337.711914
1832.763672	4262.390625
1832.025391	4332.880371
1831.289063	4379.617676
1830.550781	4344.998047
1829.812500	4276.502930
1829.076172	4255.463867
1828.337891	4346.220703
1827.599609	4321.790039
1826.861328	4321.072266
1826.123047	4232.322266
1825.384766	4248.546387
1824.646484	4362.921875
1823.906250	4419.728027
1823.167969	4405.459961
1822.429688	4408.111816
1821.689453	4363.407715
1820.951172	4453.995117
1820.210938	4290.950195
1819.472656	4351.092285
1818.732422	4505.861328
1817.992188	4309.092285
1817.251953	4402.992188
1816.513672	4436.047363
1815.773438	4381.263184
1815.033203	4437.952637
1814.292969	4440.592773
1813.552734	4493.876953
1812.810547	4388.482910
1812.070313	4431.632324
1811.330078	4356.655273
1810.587891	4528.010254
1809.847656	4368.704102
1809.107422	4438.811523
1808.365234	4414.468262
1807.623047	4454.198242
1806.882813	4443.345703
1806.140625	4526.876465
1805.398438	4431.761230
1804.656250	4552.332031
1803.914063	4524.625000
1803.171875	4466.610352
1802.429688	4509.652832
1801.687500	4542.578613
1800.945313	4545.192383
1800.203125	4504.043945
1799.458984	4577.342285
1798.716797	4462.168945
1797.974609	4525.355957
1797.230469	4477.509766
1796.488281	4544.036621
1795.744141	4462.574219
1795.000000	4498.820313
1794.257813	4461.094727
1793.513672	4359.518555
1792.769531	4510.026367
1792.025391	4542.880371
1791.281250	4511.891602
1790.537109	4437.246094
1789.792969	4580.923828
1789.048828	4674.186035
1788.302734	4710.342285
1787.558594	4565.220215
1786.814453	4641.657227
1786.068359	4556.996582
1785.324219	4727.352539
1784.578125	4672.896484
1783.832031	4594.980957
1783.087891	4718.297363
1782.341797	4613.576172
1781.595703	4723.439453
1780.849609	4524.901855
1780.103516	4711.821289
1779.357422	4737.846680
1778.611328	4727.011719
1777.865234	4712.830566
1777.119141	4641.721191
1776.373047	4724.664063
1775.625000	4660.271973
1774.878906	4666.195313
1774.130859	4675.463379
1773.384766	4714.844238
1772.636719	4657.187012
1771.890625	4730.009277
1771.142578	4578.720703
1770.394531	4718.411621
1769.646484	4717.630859
1768.898438	4663.363281
1768.152344	4812.998047
1767.402344	4748.707520
1766.654297	4711.167969
1765.906250	4920.852539
1765.158203	4699.588379
1764.410156	4722.188477
1763.660156	4794.866211
1762.912109	4683.902832
1762.164063	4766.576172
1761.414063	4689.027832
1760.664063	4761.662598
1759.916016	4894.326660
1759.166016	4820.130859
1758.416016	4779.311523
1757.666016	4848.548340
1756.916016	4987.777832
1756.166016	5080.291992
1755.416016	4896.138184
1754.666016	4941.982910
1753.916016	4901.183105
1753.166016	4843.740234
1752.416016	4972.839844
1751.664063	4775.534668
1750.914063	4981.184570
1750.162109	4887.145996
1749.412109	4952.909668
1748.660156	4945.434570
1747.910156	4957.927246
1747.158203	4827.357910
1746.406250	4813.254883
1745.654297	4975.424316
1744.902344	4761.785156
1744.150391	4910.610352
1743.398438	5062.710938
1742.646484	4912.311523
1741.894531	4948.053711
1741.142578	4877.463379
1740.388672	5019.502441
1739.636719	5045.244629
1738.882813	4878.367188
1738.130859	4841.037598
1737.376953	4979.668945
1736.625000	5144.808105
1735.871094	4938.199707
1735.117188	5129.835938
1734.363281	5032.778809
1733.611328	5078.386230
1732.857422	5120.662109
1732.103516	4887.700195
1731.349609	5009.562988
1730.593750	5005.420898
1729.839844	5024.479980
1729.085938	5003.768066
1728.332031	5178.541992
1727.576172	5088.245117
1726.822266	5143.710938
1726.066406	5195.847168
1725.312500	5191.678223
1724.556641	5157.716797
1723.800781	5163.485352
1723.044922	5235.439453
1722.291016	5178.325195
1721.535156	5237.019531
1720.779297	5050.921875
1720.023438	5106.310547
1719.267578	5069.095215
1718.509766	5180.666016
1717.753906	5143.450195
1716.998047	5162.431641
1716.242188	5164.884277
1715.484375	5144.208496
1714.728516	5192.910645
1713.970703	5225.082520
1713.214844	5045.896973
1712.457031	5259.677734
1711.699219	5252.208008
1710.941406	5149.021484
1710.183594	5243.875488
1709.427734	5302.402832
1708.669922	5304.827148
1707.910156	5102.745117
1707.152344	5336.057129
1706.394531	5371.448242
1705.636719	5225.501465
1704.878906	5059.824707
1704.119141	5210.595215
1703.361328	5288.821289
1702.601563	5284.654785
1701.843750	5336.489746
1701.083984	5263.150879
1700.324219	5357.781738
1699.566406	5370.068359
1698.806641	5388.935059
1698.046875	5374.881348
1697.287109	5288.432617
1696.527344	5313.883789
1695.767578	5401.832520
1695.007813	5430.545410
1694.246094	5502.001953
1693.486328	5228.177734
1692.726563	5266.767578
1691.964844	5453.263184
1691.205078	5495.089844
1690.443359	5329.884766
1689.683594	5388.145020
1688.921875	5521.938477
1688.160156	5448.772949
1687.400391	5362.495605
1686.638672	5397.728516
1685.876953	5436.232422
1685.115234	5648.680176
1684.353516	5552.581543
1683.591797	5377.767578
1682.830078	5481.860352
1682.066406	5520.318359
1681.304688	5493.173340
1680.542969	5525.058105
1679.779297	5570.046387
1679.017578	5647.798340
1678.253906	5532.161621
1677.492188	5485.375488
1676.728516	5428.775879
1675.964844	5673.561523
1675.201172	5636.600586
1674.437500	5524.334473
1673.675781	5595.455566
1672.910156	5653.458496
1672.146484	5557.610352
1671.382813	5573.058105
1670.619141	5555.780762
1669.855469	5702.080078
1669.089844	5691.329102
1668.326172	5644.607910
1667.562500	5767.931641
1666.796875	5675.442871
1666.033203	5674.508789
1665.267578	5670.307129
1664.501953	5525.597656
1663.736328	5769.721680
1662.972656	5935.368164
1662.207031	5705.769043
1661.441406	5695.033691
1660.675781	5622.267578
1659.908203	5624.606934
1659.142578	5675.904297
1658.376953	5720.657715
1657.611328	5873.068848
1656.843750	5682.890625
1656.078125	5890.707520
1655.310547	5919.089844
1654.544922	5908.334473
1653.777344	5884.541992
1653.011719	5886.833496
1652.244141	5921.715332
1651.476563	6005.463379
1650.708984	5851.350586
1649.941406	5895.992676
1649.173828	5953.647949
1648.406250	5871.259766
1647.638672	5980.993164
1646.871094	6064.647949
1646.103516	5855.345215
1645.333984	6147.264648
1644.566406	6195.060059
1643.796875	6119.218750
1643.029297	6157.244629
1642.259766	6081.434082
1641.492188	6031.661133
1640.722656	6046.925293
1639.953125	5980.921387
1639.183594	6005.938477
1638.414063	6160.924316
1637.644531	6208.645508
1636.875000	6230.363770
1636.105469	6148.144531
1635.335938	6095.177246
1634.566406	6064.955078
1633.794922	6330.149902
1633.025391	6335.601074
1632.255859	6120.379395
1631.484375	6268.627441
1630.714844	6300.038574
1629.943359	6318.465332
1629.171875	6213.650391
1628.402344	6215.872070
1627.630859	6338.046387
1626.859375	6330.522461
1626.087891	6504.491699
1625.316406	6393.250977
1624.544922	6431.079102
1623.773438	6349.040527
1623.000000	6448.399902
1622.228516	6515.344238
1621.457031	6455.995605
1620.683594	6471.121582
1619.912109	6573.631836
1619.138672	6540.191406
1618.367188	6639.420898
1617.593750	6343.941406
1616.820313	6608.130859
1616.048828	6629.684082
1615.275391	6644.763184
1614.501953	6646.905762
1613.728516	6632.885254
1612.955078	6570.391113
1612.181641	6591.932129
1611.406250	6716.851563
1610.632813	6712.519043
1609.859375	6624.214355
1609.083984	6897.611328
1608.310547	6806.076172
1607.537109	6737.167969
1606.761719	6745.745605
1605.986328	6783.364258
1605.212891	6801.610352
1604.437500	6800.494629
1603.662109	6763.898438
1602.886719	6836.963379
1602.111328	6916.453613
1601.335938	6966.901855
1600.560547	6872.280273
1599.785156	6980.730957
1599.009766	7027.920898
1598.232422	6852.790527
1597.457031	6912.871094
1596.681641	6989.035645
1595.904297	6962.127441
1595.126953	6964.205566
1594.351563	7146.556152
1593.574219	7151.821777
1592.796875	7179.612305
1592.021484	7117.300781
1591.244141	7132.219238
1590.466797	7127.833496
1589.689453	7097.720703
1588.912109	7167.297852
1588.134766	7133.973145
1587.355469	7222.807617
1586.578125	7318.040527
1585.800781	7352.188477
1585.021484	7254.598145
1584.244141	7330.504395
1583.464844	7364.632813
1582.687500	7517.566406
1581.908203	7375.062012
1581.128906	7450.898438
1580.351563	7507.451660
1579.572266	7429.201660
1578.792969	7472.905273
1578.013672	7583.964355
1577.234375	7476.871582
1576.455078	7539.787598
1575.673828	7538.552734
1574.894531	7524.493652
1574.115234	7558.520996
1573.335938	7534.848145
1572.554688	7501.569336
1571.775391	7618.885254
1570.994141	7665.687988
1570.212891	7808.561035
1569.433594	7804.079590
1568.652344	7988.505859
1567.871094	7951.983398
1567.089844	7736.230469
1566.308594	7782.967285
1565.527344	7868.084473
1564.746094	7975.568359
1563.964844	7916.686523
1563.183594	8065.702637
1562.400391	7926.884766
1561.619141	8082.244141
1560.835938	8259.928711
1560.054688	8012.480957
1559.271484	8091.057129
1558.490234	8153.632813
1557.707031	8206.603516
1556.923828	8297.884766
1556.142578	8283.752930
1555.359375	8390.956055
1554.576172	8395.966797
1553.792969	8187.122070
1553.009766	8201.738281
1552.224609	8206.778320
1551.441406	8317.094727
1550.658203	8609.193359
1549.875000	8524.863281
1549.089844	8488.392578
1548.306641	8512.508789
1547.521484	8731.066406
1546.738281	8538.408203
1545.953125	8613.490234
1545.167969	8554.731445
1544.382813	8585.187500
1543.597656	8618.818359
1542.814453	8684.284180
1542.027344	8686.047852
1541.242188	8748.296875
1540.457031	8861.454102
1539.671875	8745.435547
1538.886719	8890.374023
1538.099609	8672.583008
1537.314453	8877.923828
1536.529297	8968.703125
1535.742188	9081.711914
1534.955078	8943.514648
1534.169922	9072.383789
1533.382813	9023.225586
1532.595703	9059.883789
1531.808594	9242.683594
1531.023438	9129.986328
1530.236328	9236.485352
1529.447266	9362.002930
1528.660156	9373.173828
1527.873047	9289.099609
1527.085938	9335.193359
1526.298828	9432.049805
1525.509766	9367.044922
1524.722656	9365.513672
1523.933594	9459.145508
1523.146484	9790.613281
1522.357422	9465.566406
1521.568359	9568.646484
1520.779297	9652.672852
1519.992188	9590.875000
1519.203125	9804.797852
1518.414063	9838.047852
1517.625000	9839.608398
1516.835938	9799.991211
1516.044922	9690.715820
1515.255859	9774.624023
1514.466797	9709.709961
1513.675781	9863.225586
1512.886719	9924.910156
1512.095703	9894.809570
1511.306641	9943.813477
1510.515625	9866.270508
1509.726563	10003.820313
1508.935547	10084.404297
1508.144531	10016.360352
1507.353516	10283.427734
1506.562500	10145.837891
1505.771484	10238.986328
1504.980469	10088.809570
1504.189453	10295.665039
1503.396484	10347.680664
1502.605469	10207.033203
1501.814453	10303.251953
1501.021484	10386.810547
1500.230469	10303.043945
1499.437500	10399.199219
1498.646484	10621.543945
1497.853516	10480.988281
1497.060547	10640.157227
1496.267578	10729.885742
1495.474609	10658.756836
1494.681641	10505.674805
1493.888672	10510.263672
1493.095703	10789.070313
1492.302734	10651.797852
1491.509766	10505.117188
1490.716797	10541.207031
1489.921875	10577.285156
1489.128906	10736.175781
1488.333984	10677.744141
1487.541016	10783.044922
1486.746094	10891.458008
1485.951172	10911.711914
1485.158203	10639.306641
1484.363281	10945.905273
1483.568359	10881.204102
1482.773438	11024.110352
1481.978516	10786.455078
1481.183594	10976.493164
1480.388672	11106.738281
1479.593750	10954.051758
1478.796875	11059.116211
1478.001953	11154.718750
1477.205078	10942.407227
1476.410156	11195.055664
1475.613281	11293.729492
1474.818359	10987.294922
1474.021484	11151.901367
1473.224609	11256.811523
1472.427734	11233.005859
1471.632813	11199.791992
1470.835938	11160.314453
1470.039063	11136.535156
1469.240234	11222.541992
1468.443359	11292.839844
1467.646484	11203.204102
1466.849609	11229.591797
1466.050781	11296.718750
1465.253906	11514.255859
1464.457031	11446.575195
1463.658203	11284.927734
1462.859375	11583.802734
1462.062500	11547.461914
1461.263672	11523.659180
1460.464844	11399.674805
1459.666016	11313.294922
1458.867188	11524.283203
1458.068359	11469.205078
1457.269531	11404.757813
1456.470703	11496.749023
1455.671875	11397.911133
1454.871094	11361.652344
1454.072266	11516.142578
1453.273438	11420.475586
1452.472656	11528.017578
1451.673828	11766.787109
1450.873047	11742.995117
1450.072266	11700.465820
1449.273438	11589.226563
1448.472656	11624.816406
1447.671875	11591.694336
1446.871094	11589.805664
1446.070313	11456.803711
1445.269531	11713.999023
1444.468750	11730.814453
1443.666016	11597.854492
1442.865234	11826.823242
1442.064453	11803.061523
1441.261719	11654.559570
1440.460938	11711.906250
1439.658203	11772.351563
1438.857422	11932.526367
1438.054688	11703.066406
1437.251953	11987.845703
1436.449219	11671.212891
1435.646484	11949.673828
1434.843750	11888.549805
1434.041016	11790.075195
1433.238281	11816.176758
1432.435547	11823.591797
1431.632813	11656.698242
1430.830078	11975.345703
1430.025391	12150.755859
1429.222656	12266.998047
1428.417969	12097.029297
1427.615234	12216.351563
1426.810547	12220.581055
1426.005859	12066.248047
1425.203125	12054.957031
1424.398438	12018.805664
1423.593750	11979.558594
1422.789063	12080.139648
1421.984375	12012.935547
1421.179688	12200.447266
1420.375000	11962.441406
1419.568359	12097.114258
1418.763672	12151.026367
1417.958984	11906.936523
1417.152344	12112.931641
1416.347656	11974.428711
1415.541016	12282.727539
1414.736328	12240.402344
1413.929688	12294.236328
1413.123047	12310.841797
1412.316406	12119.709961
1411.509766	12251.035156
1410.703125	12276.936523
1409.896484	12321.422852
1409.089844	12229.562500
1408.283203	12292.628906
1407.476563	12299.920898
1406.667969	12378.439453
1405.861328	12274.243164
1405.054688	12213.422852
1404.246094	12353.825195
1403.439453	12280.631836
1402.630859	12420.976563
1401.822266	12388.016602
1401.013672	12218.957031
1400.207031	12513.888672
1399.398438	12487.113281
1398.589844	12689.146484
1397.781250	12612.889648
1396.970703	12734.472656
1396.162109	12448.085938
1395.353516	12331.735352
1394.544922	12403.874023
1393.734375	12565.567383
1392.925781	12841.477539
1392.115234	12697.346680
1391.306641	12849.650391
1390.496094	13004.991211
1389.685547	12675.720703
1388.876953	12716.861328
1388.066406	12724.049805
1387.255859	12771.337891
1386.445313	12729.165039
1385.634766	12776.436523
1384.824219	12885.360352
1384.011719	12821.607422
1383.201172	12939.734375
1382.390625	12931.466797
1381.578125	12772.215820
1380.767578	13078.224609
1379.955078	12851.232422
1379.144531	12916.899414
1378.332031	12884.005859
1377.519531	12878.833008
1376.708984	12879.817383
1375.896484	12930.047852
1375.083984	12949.487305
1374.271484	12978.150391
1373.458984	13225.225586
1372.644531	12995.462891
1371.832031	12968.748047
1371.019531	13040.436523
1370.207031	13161.291016
1369.392578	13199.112305
1368.580078	13153.940430
1367.765625	13161.020508
1366.953125	12888.515625
1366.138672	13350.270508
1365.324219	13145.391602
1364.509766	13293.727539
1363.695313	13196.386719
1362.880859	13169.683594
1362.066406	13281.109375
1361.251953	13251.332031
1360.437500	13025.188477
1359.623047	13434.166016
1358.808594	13315.423828
1357.992188	13442.068359
1357.177734	13255.903320
1356.361328	13373.318359
1355.546875	13407.930664
1354.730469	13105.394531
1353.914063	13219.711914
1353.099609	13235.948242
1352.283203	13203.164063
1351.466797	13308.220703
1350.650391	13397.930664
1349.833984	13401.878906
1349.017578	13393.579102
1348.201172	13501.595703
1347.382813	13505.524414
1346.566406	13463.551758
1345.750000	13553.147461
1344.931641	13391.883789
1344.115234	13322.423828
1343.296875	13252.986328
1342.478516	13324.212891
1341.662109	13560.488281
1340.843750	13402.409180
1340.025391	13485.798828
1339.207031	13434.722656
1338.388672	13478.365234
1337.570313	13387.598633
1336.751953	13483.151367
1335.933594	13520.657227
1335.115234	13555.097656
1334.294922	13403.327148
1333.476563	13477.450195
1332.656250	13688.864258
1331.837891	13360.188477
1331.017578	13577.654297
1330.197266	13551.050781
1329.378906	13368.931641
1328.558594	13412.497070
1327.738281	13257.895508
1326.917969	13639.791016
1326.097656	13332.827148
1325.277344	13598.799805
1324.457031	13617.918945
1323.636719	13570.018555
1322.814453	13738.366211
1321.994141	13395.092773
1321.173828	13383.785156
1320.351563	13500.332031
1319.529297	13285.092773
1318.708984	13620.715820
1317.886719	13512.016602
1317.064453	13445.940430
1316.244141	13480.257813
1315.421875	13487.194336
1314.599609	13387.707031
1313.777344	13370.334961
1312.955078	13547.501953
1312.130859	13533.148438
1311.308594	13412.446289
1310.486328	13279.631836
1309.662109	13341.267578
1308.839844	13497.035156
1308.015625	13394.636719
1307.193359	13316.559570
1306.369141	13545.110352
1305.544922	13363.837891
1304.722656	13382.913086
1303.898438	13256.341797
1303.074219	13411.943359
1302.250000	13512.897461
1301.425781	13474.313477
1300.601563	13135.552734
1299.777344	13430.531250
1298.951172	13501.102539
1298.126953	13235.239258
1297.300781	13348.242188
1296.476563	13518.774414
1295.650391	13562.020508
1294.826172	13465.929688
1294.000000	13394.095703
1293.173828	13419.174805
1292.349609	13456.353516
1291.523438	13432.984375
1290.697266	13312.780273
1289.871094	13386.267578
1289.044922	13293.337891
1288.216797	13270.008789
1287.390625	13261.808594
1286.564453	13353.399414
1285.738281	13308.907227
1284.910156	13352.092773
1284.083984	13476.870117
1283.255859	13187.604492
1282.427734	13327.473633
1281.601563	13243.748047
1280.773438	13229.519531
1279.945313	13429.711914
1279.117188	13466.789063
1278.289063	13419.321289
1277.460938	13290.371094
1276.632813	13399.882813
1275.804688	13180.451172
1274.976563	13229.604492
1274.146484	13369.237305
1273.318359	13339.926758
1272.488281	13199.049805
1271.660156	13386.860352
1270.830078	13330.428711
1270.001953	13231.818359
1269.171875	13268.850586
1268.341797	13402.291016
1267.511719	13207.312500
1266.681641	13443.130859
1265.851563	13371.684570
1265.021484	13411.674805
1264.191406	13334.235352
1263.361328	13151.464844
1262.529297	13323.896484
1261.699219	13390.950195
1260.869141	13400.815430
1260.037109	13194.085938
1259.207031	13285.188477
1258.375000	13271.007813
1257.542969	13313.959961
1256.710938	13338.859375
1255.880859	13192.420898
1255.048828	13268.422852
1254.216797	13299.327148
1253.384766	13444.385742
1252.552734	13436.200195
1251.718750	13172.732422
1250.886719	13413.832031
1250.054688	13183.478516
1249.220703	13271.400391
1248.388672	13338.284180
1247.554688	13273.104492
1246.722656	13273.956055
1245.888672	13361.805664
1245.054688	13236.664063
1244.222656	13315.493164
1243.388672	13274.356445
1242.554688	13128.302734
1241.720703	13186.127930
1240.886719	13345.833984
1240.050781	13220.814453
1239.216797	12978.988281
1238.382813	13144.639648
1237.548828	13187.438477
1236.712891	13361.986328
1235.878906	13368.805664
1235.042969	13124.156250
1234.207031	13131.011719
1233.373047	13314.432617
1232.537109	13249.441406
1231.701172	13250.288086
1230.865234	13212.249023
1230.029297	13216.092773
1229.193359	13225.914063
1228.357422	13014.489258
1227.521484	13230.601563
1226.683594	13276.281250
1225.847656	13041.043945
1225.011719	13104.666016
1224.173828	13311.660156
1223.337891	13172.110352
1222.500000	13390.971680
1221.662109	13179.791016
1220.826172	13091.081055
1219.988281	13082.993164
1219.150391	13065.954102
1218.312500	13147.391602
1217.474609	13124.379883
1216.636719	13447.404297
1215.798828	13281.189453
1214.960938	13216.417969
1214.121094	13270.929688
1213.283203	12842.488281
1212.443359	13055.013672
1211.605469	13005.220703
1210.765625	13041.851563
1209.927734	13003.992188
1209.087891	13427.838867
1208.248047	13264.844727
1207.408203	13244.832031
1206.568359	13299.257813
1205.728516	13070.874023
1204.888672	13158.047852
1204.048828	13084.500977
1203.208984	13070.483398
1202.369141	13252.808594
1201.527344	13271.485352
1200.687500	13135.515625
1199.845703	13299.900391
1199.005859	13208.562500
1198.164063	13025.109375
1197.322266	13037.862305
1196.482422	12928.782227
1195.640625	13229.730469
1194.798828	12942.424805
1193.957031	13109.622070
1193.115234	13131.258789
1192.273438	13259.773438
1191.431641	13346.686523
1190.587891	12816.208984
1189.746094	13075.286133
1188.904297	13117.679688
1188.060547	13038.425781
1187.218750	13119.371094
1186.375000	13081.661133
1185.531250	13242.633789
1184.689453	12961.807617
1183.845703	13282.816406
1183.001953	13304.378906
1182.158203	13322.971680
1181.314453	13107.495117
1180.470703	13049.091797
1179.626953	13121.029297
1178.783203	13181.097656
1177.937500	13214.498047
1177.093750	13117.627930
1176.248047	13074.069336
1175.404297	13163.699219
1174.558594	13111.268555
1173.714844	13171.278320
1172.869141	13180.982422
1172.023438	12957.035156
1171.177734	13096.880859
1170.332031	13094.764648
1169.486328	13320.269531
1168.640625	12998.908203
1167.794922	12964.300781
1166.949219	13053.800781
1166.103516	13033.966797
1165.255859	12975.739258
1164.410156	12896.858398
1163.562500	12906.585938
1162.716797	13137.732422
1161.869141	13029.343750
1161.023438	13136.438477
1160.175781	13131.365234
1159.328125	13070.236328
1158.480469	13292.317383
1157.632813	13183.990234
1156.785156	13025.565430
1155.937500	12967.440430
1155.089844	13100.954102
1154.240234	13089.995117
1153.392578	13087.880859
1152.544922	12991.475586
1151.695313	13130.790039
1150.847656	13237.657227
1149.998047	13114.767578
1149.148438	13233.381836
1148.300781	13010.428711
1147.451172	13111.358398
1146.601563	13115.126953
1145.751953	13021.782227
1144.902344	13246.236328
1144.052734	13273.515625
1143.203125	13147.834961
1142.351563	13178.061523
1141.501953	13187.695313
1140.652344	12991.530273
1139.800781	13039.403320
1138.951172	13116.649414
1138.099609	13091.023438
1137.248047	13068.343750
1136.398438	13204.297852
1135.546875	13190.417969
1134.695313	13138.365234
1133.843750	12854.375977
1132.992188	13148.801758
1132.140625	13155.484375
1131.289063	13264.878906
1130.437500	13086.683594
1129.583984	13289.933594
1128.732422	13067.791016
1127.878906	13097.942383
1127.027344	13028.384766
1126.173828	13011.622070
1125.322266	13197.129883
1124.468750	13153.966797
1123.615234	13102.026367
1122.761719	13231.759766
1121.908203	13440.547852
1121.054688	13286.069336
1120.201172	13078.925781
1119.347656	13240.787109
1118.494141	13364.537109
1117.640625	13245.293945
1116.785156	12932.929688
1115.931641	13191.273438
1115.076172	13209.625000
1114.222656	13148.988281
1113.367188	13208.286133
1112.511719	13238.321289
1111.658203	13242.033203
1110.802734	13231.125977
1109.947266	13059.462891
1109.091797	12867.398438
1108.236328	13046.482422
1107.380859	13327.759766
1106.523438	13220.453125
1105.667969	13291.333008
1104.812500	13008.863281
1103.955078	13275.366211
1103.099609	13235.275391
1102.242188	13294.431641
1101.386719	12947.941406
1100.529297	13012.959961
1099.671875	13197.563477
1098.814453	13052.512695
1097.958984	13178.723633
1097.101563	12987.068359
1096.242188	13215.286133
1095.384766	13143.197266
1094.527344	13345.084961
1093.669922	13232.203125
1092.812500	13157.231445
1091.953125	13137.630859
1091.095703	13019.010742
1090.236328	13296.467773
1089.378906	13396.228516
1088.519531	13056.377930
1087.660156	12838.883789
1086.800781	13063.806641
1085.941406	12936.582031
1085.082031	13024.681641
1084.222656	13168.019531
1083.363281	13122.271484
1082.503906	13187.035156
1081.644531	13260.500000
1080.783203	13159.526367
1079.923828	13163.216797
1079.064453	13140.751953
1078.203125	13013.697266
1077.341797	13104.558594
1076.482422	13175.059570
1075.621094	13268.769531
1074.759766	12944.328125
1073.898438	13029.335938
1073.037109	13265.253906
1072.175781	13106.395508
1071.314453	12970.801758
1070.453125	12957.105469
1069.591797	13181.279297
1068.728516	13039.937500
1067.867188	12904.440430
1067.003906	12928.454102
1066.142578	12862.593750
1065.279297	13121.381836
1064.417969	12988.856445
1063.554688	13018.634766
1062.691406	13074.477539
1061.828125	12843.538086
1060.964844	12954.416992
1060.101563	12848.083984
1059.238281	12944.450195
1058.375000	13008.941406
1057.511719	12937.381836
1056.646484	12943.978516
1055.783203	12985.291992
1054.917969	12902.198242
1054.054688	13010.029297
1053.189453	12926.958008
1052.326172	12881.501953
1051.460938	12888.098633
1050.595703	12943.832031
1049.730469	12915.735352
1048.865234	12896.316406
1048.000000	12868.235352
1047.134766	13019.260742
1046.269531	12913.186523
1045.402344	12908.217773
1044.537109	12923.460938
1043.671875	13025.303711
1042.804688	12780.750977
1041.939453	12735.403320
1041.072266	13189.247070
1040.205078	12840.926758
1039.339844	12867.703125
1038.472656	12842.556641
1037.605469	12658.823242
1036.738281	12754.808594
1035.871094	12839.232422
1035.003906	12672.879883
1034.136719	12861.030273
1033.267578	12876.245117
1032.400391	12911.620117
1031.533203	12728.080078
1030.664063	12970.816406
1029.796875	12732.617188
1028.927734	13015.578125
1028.058594	12737.150391
1027.191406	12950.947266
1026.322266	12830.881836
1025.453125	12779.904297
1024.583984	12599.497070
1023.714844	12709.635742
1022.845703	12713.339844
1021.976563	12645.162109
1021.105469	12827.108398
1020.236328	12756.059570
1019.367188	12754.003906
1018.496094	12749.076172
1017.626953	12861.938477
1016.755859	12681.776367
1015.884766	12717.068359
1015.015625	12938.998047
1014.144531	12853.653320
1013.273438	12845.841797
1012.402344	12924.135742
1011.531250	12853.182617
1010.660156	12618.708008
1009.789063	12774.455078
1008.916016	12697.823242
1008.044922	12601.139648
1007.173828	12579.039063
1006.300781	12703.156250
1005.427734	12729.774414
1004.556641	12799.373047
1003.683594	12697.019531
1002.810547	12895.527344
1001.939453	12813.242188
1001.066406	12599.234375
1000.193359	12717.478516
999.320313	12795.600586
998.445313	12790.676758
997.572266	12777.167969
996.699219	12855.241211
995.826172	12710.104492
994.951172	12533.542969
994.078125	12637.361328
993.203125	12606.726563
992.330078	12639.010742
991.455078	12799.941406
990.580078	12743.567383
989.705078	12738.657227
988.830078	12662.306641
987.955078	12680.268555
987.080078	12712.507813
986.205078	12693.323242
985.330078	12679.856445
984.455078	12760.621094
983.578125	12764.276367
982.703125	12673.733398
981.826172	12708.794922
980.951172	12541.244141
980.074219	12753.205078
979.197266	12711.215820
978.322266	12669.239258
977.445313	12863.966797
976.568359	12668.012695
975.691406	12731.541016
974.814453	12621.179688
973.937500	12644.796875
973.058594	12622.815430
972.181641	12512.524414
971.304688	12501.964844
970.425781	12679.377930
969.548828	12660.251953
968.669922	12484.541016
967.792969	12690.335938
966.914063	12540.291992
966.035156	12455.748047
965.156250	12311.479492
964.277344	12673.633789
963.398438	12421.291016
962.519531	12479.013672
961.640625	12548.091797
960.761719	12406.765625
959.882813	12356.446289
959.001953	12473.825195
958.123047	12528.649414
957.242188	12552.204102
956.363281	12464.962891
955.482422	12602.128906
954.601563	12443.913086
953.720703	12521.411133
952.839844	12564.818359
951.960938	12565.634766
951.078125	12373.470703
950.197266	12467.954102
949.316406	12414.881836
948.435547	12151.917969
947.554688	12138.618164
946.671875	12289.791992
945.791016	12154.559570
944.908203	12356.706055
944.027344	12127.973633
943.144531	12137.358398
942.261719	12421.577148
941.378906	12192.944336
940.496094	12205.145508
939.613281	12041.756836
938.730469	12005.840820
937.847656	12097.335938
936.964844	11965.179688
936.082031	11937.782227
935.199219	12000.946289
934.314453	12041.455078
933.431641	12042.346680
932.546875	11901.819336
931.662109	12160.073242
930.779297	11965.849609
929.894531	11961.097656
929.009766	11800.886719
928.125000	11943.119141
927.240234	11915.767578
926.355469	11894.074219
925.470703	11632.285156
924.585938	11633.238281
923.701172	11758.439453
922.814453	11942.891602
921.929688	11830.876953
921.042969	11761.234375
920.158203	11891.977539
919.271484	11703.841797
918.384766	11778.129883
917.498047	11680.333008
916.613281	11796.903320
915.726563	11515.850586
914.839844	11607.035156
913.953125	11830.675781
913.064453	11592.029297
912.177734	11677.520508
911.291016	11644.650391
910.402344	11518.829102
909.515625	11663.438477
908.628906	11546.101563
907.740234	11899.019531
906.851563	11812.649414
905.962891	11543.347656
905.076172	11473.947266
904.187500	11345.479492
903.298828	11428.056641
902.410156	11530.298828
901.521484	11365.319336
900.630859	11428.168945
899.742188	11451.635742
898.853516	11489.150391
897.962891	11374.875977
897.074219	11249.396484
896.183594	11166.103516
895.294922	11299.156250
894.404297	11266.442383
893.513672	11326.416992
892.625000	11532.386719
891.734375	11216.088867
890.843750	11214.285156
889.953125	11181.609375
889.060547	11112.463867
888.169922	11256.575195
887.279297	11423.082031
886.388672	11314.662109
885.496094	11150.189453
884.605469	11319.436523
883.712891	11320.419922
882.820313	11282.161133
881.929688	11033.721680
881.037109	11163.647461
880.144531	11049.786133
879.251953	11179.666992
878.359375	11085.445313
877.466797	11050.059570
876.574219	10888.690430
875.681641	10993.318359
874.787109	10927.174805
873.894531	10880.642578
873.000000	11057.969727
872.107422	11033.811523
871.212891	11043.226563
870.320313	10946.363281
869.425781	10846.734375
868.531250	10752.729492
867.636719	10887.973633
866.742188	10981.251953
865.847656	11091.265625
864.953125	10729.053711
864.058594	10839.072266
863.164063	10717.226563
862.267578	10810.455078
861.373047	10833.847656
860.476563	10907.484375
859.582031	10646.137695
858.685547	10435.111328
857.789063	10656.668945
856.894531	10694.015625
855.998047	10753.666992
855.101563	10478.608398
854.205078	10914.741211
853.308594	10798.671875
852.412109	10704.940430
851.513672	10597.302734
850.617188	10631.829102
849.720703	10722.072266
848.822266	10550.406250
847.925781	10403.864258
847.027344	10463.463867
846.128906	10562.029297
845.232422	10563.116211
844.333984	10455.637695
843.435547	10601.470703
842.537109	10649.858398
841.638672	10445.034180
840.740234	10407.190430
839.841797	10299.822266
838.941406	10278.700195
838.042969	10293.732422
837.144531	10525.610352
836.244141	10401.613281
835.345703	10208.173828
834.445313	10273.224609
833.544922	10252.125977
832.646484	10522.713867
831.746094	10507.135742
830.845703	10341.604492
829.945313	10076.168945
829.044922	10071.774414
828.144531	10059.053711
827.242188	10132.369141
826.341797	10288.904297
825.441406	10126.339844
824.539063	10022.079102
823.638672	10286.719727
822.736328	10088.184570
821.833984	10330.548828
820.933594	10129.296875
820.031250	10088.867188
819.128906	10187.010742
818.226563	10005.273438
817.324219	9829.135742
816.421875	9996.519531
815.519531	10174.927734
814.615234	10092.992188
813.712891	9947.407227
812.810547	10001.170898
811.906250	9717.263672
811.003906	9884.502930
810.099609	10162.359375
809.195313	9956.018555
808.291016	10009.737305
807.388672	9961.117188
806.484375	9984.402344
805.580078	9935.801758
804.675781	10133.221680
803.769531	10208.976563
802.865234	10389.709961
801.960938	10451.584961
801.056641	10408.471680
800.150391	10439.943359
799.246094	10173.167969
798.339844	10251.602539
797.433594	10241.674805
796.529297	9952.978516
795.623047	10133.518555
794.716797	10062.910156
793.810547	10381.313477
792.904297	10189.320313
791.998047	10209.748047
791.089844	10254.985352
790.183594	10592.451172
789.277344	10736.848633
788.369141	11052.079102
787.462891	11025.503906
786.554688	11310.278320
785.648438	11426.918945
784.740234	11411.312500
783.832031	11387.448242
782.923828	11660.967773
782.015625	11529.703125
781.107422	11536.109375
780.199219	11586.547852
779.291016	11334.282227
778.382813	11439.761719
777.474609	11336.144531
776.564453	11265.564453
775.656250	10994.261719
774.746094	10786.284180
773.837891	10754.313477
772.927734	10472.227539
772.017578	10319.396484
771.107422	10229.812500
770.197266	10024.870117
769.287109	9957.336914
768.376953	9862.360352
767.466797	9890.982422
766.556641	9631.314453
765.646484	9594.082031
764.734375	9521.181641
763.824219	9588.257813
762.912109	9476.967773
762.001953	9489.163086
761.089844	9312.095703
760.177734	9307.858398
759.267578	9254.265625
758.355469	9296.645508
757.443359	9155.355469
756.531250	9422.472656
755.619141	9483.986328
754.705078	9479.723633
753.792969	9500.117188
752.880859	9523.242188
751.966797	9398.481445
751.054688	9511.970703
750.140625	9417.365234
749.228516	9303.629883
748.314453	9345.924805
747.400391	9172.038086
746.486328	9145.943359
745.572266	9097.973633
744.658203	8850.365234
743.744141	9089.583984
742.830078	9077.188477
741.916016	8985.521484
741.001953	9022.343750
740.085938	8966.240234
739.171875	8959.336914
738.255859	8886.869141
737.341797	9000.164063
736.425781	8810.279297
735.509766	8849.824219
734.593750	8960.339844
733.677734	8781.470703
732.761719	8815.541992
731.845703	9024.247070
730.929688	8845.453125
730.013672	8936.784180
729.097656	8973.535156
728.179688	8974.821289
727.263672	8921.575195
726.345703	9190.038086
725.429688	9341.206055
724.511719	9372.411133
723.593750	9490.801758
722.677734	9759.000000
721.759766	9988.975586
720.841797	10044.567383
719.923828	10328.885742
719.005859	10346.287109
718.085938	10320.126953
717.167969	10487.224609
716.250000	10393.013672
715.330078	10064.831055
714.412109	9978.879883
713.492188	9909.276367
712.574219	9725.469727
711.654297	9539.001953
710.734375	9387.938477
709.814453	9391.869141
708.894531	9159.339844
707.974609	9111.673828
707.054688	9422.669922
706.134766	8951.187500
705.214844	8971.480469
704.292969	9040.649414
703.373047	9020.191406
702.451172	8953.587891
701.531250	8946.722656
700.609375	8787.875977
699.689453	8832.596680
698.767578	8692.810547
697.845703	8892.153320
696.923828	8738.841797
696.001953	8750.998047
695.080078	8681.810547
694.158203	8699.393555
693.234375	8557.051758
692.312500	8569.229492
691.390625	8443.211914
690.466797	8501.458984
689.544922	8367.366211
688.621094	8366.023438
687.697266	8340.310547
686.775391	8374.168945
685.851563	8505.469727
684.927734	8355.243164
684.003906	8332.252930
683.080078	8322.798828
682.156250	8180.789063
681.230469	8133.494141
680.306641	8318.793945
679.382813	8203.892578
678.457031	8264.757813
677.533203	7990.416992
676.607422	8126.972168
675.683594	7936.510742
674.757813	7943.343262
673.832031	7936.666016
672.906250	7881.374023
671.980469	7685.672363
671.054688	7635.837891
670.128906	7550.923828
669.203125	7795.341309
668.275391	7661.850586
667.349609	7563.480469
666.423828	7564.965332
665.496094	7393.810059
664.568359	7255.074219
663.642578	7348.292480
662.714844	7446.872559
661.787109	7221.930176
660.859375	7236.943848
659.931641	7044.445801
659.003906	7207.677734
658.076172	7039.491699
657.148438	7057.217773
656.220703	7177.278320
655.291016	7203.054199
654.363281	7277.283203
653.433594	7138.831055
652.505859	7062.325684
651.576172	7007.372559
650.646484	7243.019043
649.718750	7174.604004
648.789063	7114.279785
647.859375	7059.353027
646.929688	7163.085449
646.000000	6807.065918
645.068359	6969.941406
644.138672	6993.011230
643.208984	6881.717773
642.277344	6961.214844
641.347656	6970.843262
640.416016	7007.326660
639.486328	6928.326172
638.554688	6886.940918
637.623047	6840.199219
636.691406	7032.357422
635.759766	6931.933594
634.828125	6753.728027
633.896484	6808.983887
632.964844	6802.526855
632.033203	6747.796875
631.099609	6717.217773
630.167969	6683.967773
629.234375	6763.315430
628.302734	6772.951660
627.369141	6782.584961
626.437500	6658.246094
625.503906	6708.078125
624.570313	6589.147461
623.636719	6823.762207
622.703125	6680.752441
621.769531	6685.035156
620.835938	6710.731445
619.900391	6744.447754
618.966797	6676.467773
618.033203	6731.583008
617.097656	6687.702148
616.162109	6673.256348
615.228516	6688.231445
614.292969	6647.052246
613.357422	6678.066406
612.421875	6636.901367
611.488281	6614.457031
610.550781	6661.494141
609.615234	6652.410645
608.679688	6579.221191
607.744141	6631.582031
606.808594	6593.133301
605.871094	6680.184082
604.935547	6558.984863
603.998047	6605.976563
603.060547	6746.355957
602.125000	6451.769531
601.187500	6581.457031
600.250000	6660.422363
599.312500	6651.354004
598.375000	6570.291992
597.437500	6419.937500
596.500000	6237.643066
595.562500	6353.913086
594.623047	6366.218262
593.685547	6330.560547
592.746094	6406.800293
591.808594	6469.697266
590.869141	6388.767090
589.929688	6297.211914
588.992188	6336.135742
588.052734	6361.738281
587.113281	6227.648438
586.173828	6285.191406
585.234375	6334.733398
584.292969	6184.751953
583.353516	6181.100586
582.414063	6071.080078
581.472656	6203.047852
580.533203	6218.003906
579.591797	6177.137207
578.652344	6032.639160
577.710938	6122.014160
576.769531	6229.957031
575.828125	6109.425781
574.886719	6063.296875
573.945313	6096.845215
573.003906	6021.527832
572.062500	5959.507324
571.121094	5910.777344
570.177734	6000.056152
569.236328	5988.480957
568.294922	6061.801270
567.351563	5938.816895
566.408203	5974.993164
565.466797	5883.880859
564.523438	5859.077148
563.580078	5913.803223
562.636719	5745.885254
561.693359	5858.909180
560.750000	5950.701172
559.806641	5981.535645
558.861328	5927.604492
557.917969	5921.357910
556.974609	5827.736816
556.029297	5834.744141
555.083984	5918.510254
554.140625	5777.297363
553.195313	5850.460938
552.250000	5878.625000
551.304688	5711.033691
550.359375	5741.855957
549.414063	5722.424805
548.468750	5660.696289
547.523438	5524.969238
546.578125	5666.811035
545.630859	5568.123047
544.685547	5744.261719
543.738281	5695.787598
542.792969	5610.349609
541.845703	5641.142090
540.898438	5574.223633
539.953125	5681.575684
539.005859	5683.304688
538.058594	5761.572266
537.111328	5784.398438
536.164063	5907.478027
535.214844	5845.856445
534.267578	5655.012207
533.320313	5780.689941
532.371094	5829.861816
531.423828	5734.019531
530.474609	5611.848145
529.525391	5642.574707
528.578125	5718.086914
527.628906	5619.688477
526.679688	5671.472168
525.730469	5625.788086
524.781250	5598.552734
523.832031	5563.426758
522.880859	5620.450684
521.931641	5474.783691
520.982422	5608.122070
520.031250	5596.698242
519.082031	5580.015625
518.130859	5508.100098
517.179688	5541.407227
516.230469	5600.999023
515.279297	5660.571777
514.328125	5678.065430
513.376953	5577.279297
512.425781	5576.385254
511.474609	5620.158691
510.521484	5719.085449
509.570313	5636.743164
508.619141	5635.839844
507.666016	5726.838867
506.714844	5775.802734
505.761719	5738.127441
504.808594	5550.866699
503.857422	5812.387207
502.904297	5798.336914
501.951172	5721.333008
500.998047	5605.010742
500.044922	5732.611328
499.089844	5760.534180
498.136719	5764.854004
497.183594	5564.721680
496.228516	5535.001465
495.275391	5728.018066
494.320313	5643.263184
493.367188	5673.792480
492.412109	5552.406250
491.457031	5580.321289
490.501953	5665.828125
489.546875	5557.589844
488.591797	5383.952148
487.636719	5550.574707
486.681641	5484.271484
485.726563	5585.420898
484.769531	5495.591797
483.814453	5554.862305
482.859375	5527.823242
481.902344	5498.178711
480.945313	5445.016602
479.990234	5480.734375
479.033203	5547.798828
478.076172	5437.173340
477.119141	5420.627441
476.162109	5276.102539
475.205078	5358.825195
474.246094	5457.187988
473.289063	5404.099609
472.332031	5478.931152
471.373047	5386.708496
470.416016	5474.565430
469.457031	5554.566895
468.498047	5491.070313
467.541016	5675.370117
466.582031	5575.366211
465.623047	5629.226563
464.664063	5511.013184
463.705078	5658.700195
462.746094	5566.580078
461.785156	5503.152344
460.826172	5473.612305
459.867188	5428.453125
458.906250	5607.287109
457.947266	5353.801270
456.986328	5626.318359
456.025391	5451.005371
455.066406	5525.610840
454.105469	5457.064941
453.144531	5453.588379
452.183594	5444.909668
451.222656	5326.988770
450.259766	5414.557129
449.298828	5447.492676
448.337891	5384.223633
447.375000	5331.372559
446.414063	5257.746582
445.451172	5334.860840
444.490234	5269.052246
443.527344	5231.839355
442.564453	5275.155273
441.601563	5087.332520
440.638672	5057.956055
439.675781	5140.219727
438.712891	5069.312988
437.750000	5047.738770
436.787109	5039.145020
435.822266	5066.875977
434.859375	4928.582520
433.894531	4943.354004
432.931641	4971.086426
431.966797	5009.180664
431.001953	4992.823730
430.037109	5007.575195
429.072266	4923.844727
428.107422	5044.836426
427.142578	5028.483398
426.177734	4996.594727
425.212891	5148.594238
424.248047	5033.834473
423.281250	5051.150879
422.316406	5042.575195
421.349609	5132.353027
420.384766	5090.126465
419.417969	4980.642090
418.451172	5065.212402
417.484375	5118.717773
416.517578	5097.208496
415.550781	5042.091797
414.583984	5051.625000
413.617188	5180.058105
412.650391	5272.268066
411.681641	5320.519531
410.714844	5446.264160
409.746094	5776.041016
408.779297	6431.143555
407.810547	7648.993652
406.841797	9976.696289
405.873047	13950.679688
404.906250	20796.189453
403.937500	31691.234375
402.966797	49289.003906
401.998047	76793.070313
401.029297	91202.632813
400.060547	61304.382813
399.089844	28960.839844
398.121094	14775.885742
397.150391	9553.420898
396.181641	7492.537598
395.210938	6305.916992
394.240234	5892.652344
393.269531	5531.043945
392.300781	5231.369141
391.328125	5173.873047
390.357422	4949.024414
389.386719	4809.207031
388.416016	4816.158691
387.445313	4632.654297
386.472656	4768.295898
385.501953	4587.430664
384.529297	4630.427246
383.556641	4524.230957
382.585938	4654.659180
381.613281	4497.068848
380.640625	4617.175781
379.667969	4567.598145
378.695313	4551.446289
377.722656	4712.600098
376.750000	4776.073730
375.775391	4932.001953
374.802734	5100.722168
373.828125	5482.525879
372.855469	6025.960449
371.880859	7105.745605
370.908203	9165.661133
369.933594	12872.469727
368.958984	18741.117188
367.984375	28232.878906
367.009766	42323.292969
366.035156	60271.531250
365.060547	78060.164063
364.085938	80631.976563
363.109375	67455.976563
362.134766	50626.804688
361.158203	38290.105469
360.183594	30502.652344
359.207031	25535.632813
358.230469	21896.984375
357.255859	18861.322266
356.279297	16354.100586
355.302734	14354.586914
354.326172	12519.535156
353.347656	11184.133789
352.371094	10010.370117
351.394531	9138.883789
350.417969	8316.278320
349.439453	7729.242188
348.462891	7211.439453
347.484375	6967.383789
346.505859	6503.553711
345.527344	6290.361328
344.550781	6005.680664
343.572266	5815.633301
342.593750	5564.332031
341.615234	5468.927734
340.634766	5253.518066
339.656250	5181.176270
338.677734	4993.965332
337.697266	4934.452148
336.718750	4903.033203
335.738281	4761.891113
334.759766	4835.122070
333.779297	4658.320801
332.798828	4621.864258
331.818359	4445.153320
330.837891	4424.041992
329.857422	4364.694824
328.876953	4246.738770
327.896484	4286.836426
326.914063	4179.123047
325.933594	4140.235352
324.953125	4200.709961
323.970703	4172.019531
322.988281	4018.554199
322.007813	3857.499268
321.025391	3933.254639
320.042969	3907.170410
319.060547	3962.533691
318.078125	3890.650635
317.095703	3818.790283
316.113281	3927.559814
315.128906	3909.126709
314.146484	3733.037109
313.164063	3796.002197
312.179688	3853.862549
311.197266	3708.366943
310.212891	3720.479004
309.228516	3630.951172
308.244141	3709.124512
307.259766	3705.989746
306.275391	3568.252930
305.291016	3580.377441
304.306641	3643.275146
303.322266	3622.383545
302.337891	3667.487793
301.351563	3740.491699
300.367188	3534.375732
299.380859	3589.619385
298.394531	3660.063965
297.410156	3598.612793
296.423828	3560.001709
295.437500	3719.149170
294.451172	3738.831543
293.464844	3872.555176
292.478516	3760.438721
291.492188	3752.235352
290.503906	3865.626709
289.517578	3930.859131
288.529297	4039.120605
287.542969	4066.324707
286.554688	4116.304199
285.568359	4148.548828
284.580078	4203.560547
283.591797	4202.886719
282.603516	4187.033203
281.615234	4239.481934
280.626953	4246.389648
279.638672	4301.340820
278.648438	4282.953125
277.660156	4299.961914
276.671875	4281.580078
275.681641	4422.410645
274.693359	4280.207520
273.703125	4201.206543
272.712891	4291.464844
271.722656	4333.709961
270.732422	4312.814453
269.742188	4226.284668
268.751953	4273.567871
267.761719	4237.548828
266.771484	4234.346191
265.781250	4221.052246
264.789063	4202.717285
263.798828	4275.187988
262.806641	4302.243164
261.814453	4248.603516
260.824219	4323.552734
259.832031	4302.694824
258.839844	4322.166504
257.847656	4346.671875
256.855469	4378.727539
255.863281	4438.481445
254.871094	4344.582031
253.876953	4424.467773
252.884766	4260.102051
251.892578	4277.040527
250.898438	4364.449219
249.904297	4180.039551
248.912109	4212.079590
247.917969	4234.046387
246.923828	4100.052734
245.929688	4117.000488
244.935547	4058.505371
243.941406	4082.996094
242.947266	4137.644043
241.951172	4051.526855
240.957031	4070.980957
239.962891	3959.776123
238.966797	4049.578613
237.970703	4101.675781
236.976563	4133.666016
235.980469	4130.492188
234.984375	4077.108643
233.988281	4033.782715
232.992188	4183.719727
231.996094	4125.334473
231.000000	4192.414063
230.003906	4098.926758
229.005859	4065.663818
228.009766	4097.612305
227.011719	4222.321289
226.015625	4299.358887
225.017578	4175.850098
224.019531	4217.784668
223.023438	4294.785156
222.025391	4264.033203
221.027344	4338.496582
220.029297	4400.413574
219.029297	4209.396484
218.031250	4449.076660
217.033203	4270.628906
216.033203	4482.690918
215.035156	4572.062012
214.035156	4543.805664
213.037109	4660.656738
212.037109	4682.421387
211.037109	4956.768555
210.037109	5103.502930
209.037109	5092.684082
208.037109	5234.350098
207.037109	5131.039551
206.037109	4900.319336
205.037109	4564.736328
204.035156	4541.521484
203.035156	4405.918457
202.033203	4257.872070
201.031250	4242.208008
200.031250	4144.165039
199.029297	4218.382813
198.027344	4013.060547
197.025391	3987.464111
196.023438	3996.804199
195.021484	4113.404297
194.019531	4017.969482
193.015625	4032.287109
192.013672	3976.788330
191.011719	3956.207520
190.007813	3858.366211
189.003906	3825.350586
188.001953	3819.753662
186.998047	3809.176025
185.994141	3791.129150
184.990234	3845.311768
183.986328	3862.125732
182.982422	3854.037354
181.978516	3843.462402
180.972656	3745.779297
179.968750	3765.086426
178.964844	3804.292236
177.958984	3773.829834
176.953125	3750.839111
175.949219	3683.091309
174.943359	3729.744141
173.937500	3619.757813
172.931641	3619.177246
171.925781	3583.802734
170.919922	3523.590332
169.914063	3537.932373
168.908203	3542.333252
167.900391	3521.895508
166.894531	3426.964844
165.886719	3409.034912
164.880859	3418.418213
163.873047	3435.244873
162.865234	3442.139160
161.857422	3406.848633
160.849609	3237.599854
159.841797	3222.197510
158.833984	3231.601074
157.826172	3196.366699
156.818359	3086.763672
155.808594	3081.310791
154.800781	3028.767334
153.791016	3028.281738
152.783203	2988.152100
151.773438	3014.923584
150.763672	3059.025146
149.755859	3031.292480
148.746094	3001.092529
147.736328	2980.805176
146.726563	2925.869385
145.714844	2861.051025
144.705078	2971.947510
143.695313	2845.288574
142.683594	2884.412354
141.673828	2906.210205
140.662109	2942.838623
139.652344	2850.881348
138.640625	2736.703613
137.628906	2768.397949
136.617188	2822.324463
135.605469	2794.690918
134.593750	2730.007080
133.582031	2690.046143
132.568359	2655.037354
131.556641	2718.816162
130.544922	2686.282715
129.531250	2764.847656
128.519531	2700.230469
127.505859	2670.183350
126.492188	2578.460449
125.478516	2612.585205
124.464844	2663.965576
123.451172	2557.489990
122.437500	2623.657471
121.423828	2596.116699
120.410156	2620.350830
119.396484	2632.253662
118.380859	2565.296387
117.367188	2616.625977
116.351563	2579.254395
115.335938	2578.840576
114.322266	2548.874756
113.306641	2536.154297
112.291016	2550.518799
111.275391	2550.109863
110.259766	2566.928467
109.244141	2500.077637
108.226563	2477.533691
107.210938	2427.937988
106.193359	2410.331787
105.177734	2481.259766
104.160156	2434.145752
103.144531	2303.463379
102.126953	2411.243408
