#Wave		#Intensity
1945.525391	3331.455078
1943.826172	3309.392334
1942.126953	3404.441162
1940.425781	3434.762207
1938.726563	3429.789551
1937.025391	3357.202881
1935.324219	3418.376221
1933.623047	3385.487305
1931.919922	3455.448975
1930.218750	3468.098877
1928.515625	3383.811768
1926.814453	3428.772949
1925.111328	3420.863770
1923.408203	3451.122559
1921.705078	3503.385742
1920.001953	3382.471680
1918.296875	3427.391113
1916.593750	3382.810059
1914.888672	3389.577881
1913.183594	3413.940186
1911.478516	3385.509277
1909.773438	3383.474854
1908.068359	3360.919678
1906.361328	3367.681152
1904.656250	3329.016846
1902.949219	3362.149414
1901.242188	3352.792236
1899.535156	3353.688721
1897.828125	3320.906494
1896.121094	3403.790039
1894.412109	3394.428711
1892.703125	3377.751953
1890.996094	3375.712646
1889.287109	3402.933105
1887.578125	3357.005859
1885.869141	3328.643311
1884.158203	3399.722656
1882.449219	3339.197021
1880.738281	3354.701904
1879.027344	3316.125488
1877.316406	3325.782227
1875.605469	3348.583984
1873.894531	3340.701416
1872.181641	3356.188477
1870.470703	3383.351074
1868.757813	3355.024170
1867.044922	3360.280029
1865.332031	3331.965576
1863.619141	3243.832031
1861.906250	3163.023438
1860.191406	3314.176270
1858.478516	3325.264160
1856.763672	3308.641602
1855.048828	3268.697266
1853.333984	3320.599854
1851.617188	3352.079590
1849.902344	3329.632080
1848.185547	3331.959229
1846.470703	3380.897705
1844.753906	3355.541748
1843.037109	3340.386719
1841.320313	3315.045166
1839.601563	3295.534424
1837.884766	3338.610352
1836.166016	3351.113037
1834.447266	3370.884521
1832.728516	3208.824707
1831.009766	3250.427979
1829.291016	3220.766113
1827.570313	3317.595459
1825.851563	3296.652100
1824.130859	3216.130371
1822.410156	3279.486572
1820.689453	3318.122314
1818.968750	3266.687988
1817.246094	3306.762695
1815.525391	3336.658447
1813.802734	3292.504639
1812.080078	3275.943848
1810.357422	3240.522705
1808.634766	3170.291260
1806.912109	3288.671631
1805.187500	3302.579102
1803.464844	3319.380859
1801.740234	3315.877441
1800.015625	3293.529541
1798.291016	3245.100830
1796.564453	3250.304932
1794.839844	3306.215576
1793.113281	3260.705566
1791.386719	3232.591309
1789.660156	3276.887695
1787.933594	3214.032959
1786.207031	3188.835205
1784.480469	3298.238770
1782.751953	3233.965332
1781.023438	3185.628662
1779.294922	3268.934082
1777.566406	3290.023193
1775.837891	3160.730469
1774.107422	3225.199219
1772.378906	3322.886475
1770.648438	3280.363037
1768.917969	3275.419922
1767.187500	3150.579590
1765.457031	3193.322510
1763.724609	3178.288086
1761.994141	3125.720947
1760.261719	3136.686035
1758.529297	3133.214111
1756.796875	3148.500977
1755.064453	3116.173340
1753.330078	3125.686768
1751.597656	3201.534180
1749.863281	3156.235840
1748.128906	3154.201660
1746.394531	3159.374268
1744.660156	3193.364990
1742.923828	3234.546387
1741.189453	3150.387207
1739.453125	3180.037842
1737.716797	3175.117432
1735.980469	3170.198242
1734.244141	3143.688965
1732.507813	3115.750000
1730.769531	3130.987061
1729.031250	3180.744141
1727.292969	3090.963867
1725.554688	3142.146240
1723.816406	3158.802002
1722.076172	3115.075439
1720.337891	3151.849609
1718.597656	3044.913574
1716.857422	3080.249512
1715.117188	3187.391602
1713.376953	3181.037354
1711.634766	3114.378906
1709.894531	3178.383545
1708.152344	3127.538086
1706.410156	3109.717529
1704.667969	3110.554932
1702.923828	3174.508545
1701.181641	3082.108398
1699.437500	3110.193604
1697.695313	3138.267090
1695.951172	3091.793701
1694.205078	3088.330322
1692.460938	3150.777832
1690.716797	3105.759521
1688.970703	3112.319580
1687.224609	3153.244385
1685.478516	3211.333252
1683.732422	3233.613037
1681.984375	3045.503418
1680.238281	3083.545166
1678.490234	3158.767334
1676.742188	3106.660645
1674.994141	3203.298340
1673.246094	3099.730713
1671.496094	3090.548828
1669.748047	3111.383301
1667.998047	3069.336182
1666.248047	3090.165527
1664.498047	3095.273926
1662.748047	3113.232666
1660.996094	3096.916260
1659.244141	3100.591064
1657.494141	3107.118408
1655.742188	3126.485352
1653.988281	3090.203125
1652.236328	3073.904541
1650.484375	3073.298828
1648.730469	3141.133545
1646.976563	3114.853760
1645.222656	3082.882568
1643.468750	3103.648438
1641.712891	3124.405518
1639.958984	3009.832275
1638.203125	3053.385010
1636.447266	3052.780029
1634.691406	3097.729492
1632.933594	3181.089844
1631.177734	3126.383057
1629.419922	3080.234131
1627.662109	3102.380615
1625.904297	3036.343262
1624.146484	3099.723633
1622.388672	3158.813232
1620.628906	3124.071533
1618.869141	3096.447998
1617.111328	3125.665527
1615.349609	3109.415527
1613.589844	3124.415771
1611.830078	3145.088867
1610.068359	3157.235596
1608.306641	3116.861328
1606.544922	3155.969727
1604.783203	3168.104980
1603.021484	3184.490479
1601.257813	3237.741943
1599.494141	3160.523682
1597.730469	3179.734375
1595.966797	3129.487061
1594.203125	3126.022461
1592.439453	3184.896484
1590.673828	3141.759277
1588.908203	3194.940430
1587.142578	3216.949463
1585.376953	3134.192871
1583.611328	3166.111572
1581.843750	3192.356689
1580.076172	3228.493896
1578.308594	3167.016846
1576.541016	3225.770508
1574.773438	3141.695557
1573.003906	3114.198730
1571.236328	3195.539063
1569.466797	3136.954590
1567.697266	3171.635254
1565.927734	3216.188477
1564.156250	3164.694824
1562.386719	3179.580566
1560.615234	3190.224854
1558.843750	3120.419434
1557.072266	3087.328613
1555.298828	3089.519043
1553.527344	3166.462158
1551.753906	3171.455078
1549.980469	3135.559082
1548.207031	3106.725098
1546.433594	3141.320801
1544.660156	3122.359619
1542.884766	3047.056885
1541.109375	3099.951660
1539.333984	3041.581055
1537.558594	2993.089111
1535.783203	3023.439941
1534.005859	3041.112305
1532.228516	3078.474609
1530.451172	3082.060547
1528.673828	3181.279785
1526.896484	3148.282959
1525.117188	3156.068359
1523.339844	3080.923584
1521.560547	3081.692139
1519.781250	3007.997803
1518.001953	3017.208252
1516.220703	3071.354492
1514.439453	2973.837158
1512.660156	3022.353516
1510.878906	3076.463623
1509.095703	2983.214111
1507.314453	2972.774658
1505.531250	2983.378418
1503.750000	3059.886963
1501.966797	3055.044922
1500.183594	3061.418457
1498.398438	2996.314453
1496.615234	2990.086182
1494.830078	2947.437256
1493.044922	3063.071533
1491.259766	2928.005127
1489.474609	2911.994385
1487.687500	2992.569580
1485.902344	2940.166504
1484.115234	2893.381348
1482.328125	2973.908691
1480.539063	2997.061768
1478.751953	2978.257568
1476.962891	2994.409668
1475.175781	2916.911377
1473.386719	2920.492188
1471.595703	2995.322021
1469.806641	2958.377441
1468.015625	2994.065430
1466.226563	2899.891846
1464.435547	3031.893311
1462.642578	2887.508545
1460.851563	2985.968750
1459.060547	2964.415527
1457.267578	3046.080322
1455.474609	2995.239502
1453.681641	2949.996094
1451.886719	2988.402100
1450.093750	2940.391357
1448.298828	2953.703613
1446.503906	2929.399902
1444.708984	2914.854736
1442.914063	2976.895996
1441.117188	2905.270752
1439.322266	2979.812988
1437.525391	2927.697510
1435.728516	2934.033936
1433.931641	2937.585449
1432.132813	2953.650635
1430.333984	2891.850830
1428.537109	2848.147217
1426.736328	2950.382813
1424.937500	2912.242188
1423.138672	2858.836914
1421.337891	2977.669922
1419.537109	2968.706055
1417.736328	2886.168213
1415.935547	2942.460693
1414.134766	2833.597412
1412.332031	2880.164551
1410.529297	2864.293701
1408.726563	2906.673584
1406.923828	2914.372803
1405.121094	2909.593018
1403.316406	2940.847900
1401.511719	2905.580566
1399.707031	2928.510498
1397.902344	2961.125000
1396.097656	2905.104248
1394.291016	2879.564209
1392.484375	2910.782959
1390.677734	2876.948975
1388.871094	2861.114502
1387.064453	2954.561279
1385.255859	2930.418701
1383.447266	2932.556152
1381.638672	2918.104248
1379.830078	2874.635498
1378.021484	2853.292969
1376.210938	2920.371338
1374.402344	2912.838623
1372.591797	2866.645264
1370.779297	2857.746094
1368.968750	2909.581543
1367.158203	2860.657471
1365.345703	2868.320068
1363.533203	2848.391846
1361.720703	2854.674072
1359.906250	2849.923096
1358.093750	2816.225830
1356.279297	2887.284180
1354.464844	2839.813965
1352.650391	2854.354980
1350.833984	2826.193359
1349.019531	2791.158691
1347.203125	2805.699707
1345.386719	2872.537354
1343.570313	2910.447510
1341.753906	2846.531494
1339.935547	2767.512451
1338.117188	2827.422852
1336.298828	2991.800293
1334.480469	2864.688477
1332.662109	2923.163574
1330.841797	2856.577881
1329.021484	2784.525635
1327.201172	2814.137207
1325.380859	2744.871094
1323.560547	2819.781006
1321.738281	2721.719727
1319.917969	2751.318115
1318.095703	2731.513672
1316.271484	2755.609863
1314.449219	2755.011230
1312.625000	2803.769531
1310.802734	2742.847656
1308.978516	2812.143555
1307.152344	2708.770996
1305.328125	2673.935303
1303.501953	2671.983643
1301.675781	2720.694580
1299.849609	2759.801514
1298.023438	2716.771729
1296.197266	2732.599854
1294.369141	2711.483154
1292.541016	2728.672363
1290.712891	2641.927246
1288.884766	2709.708496
1287.056641	2635.306152
1285.226563	2688.026611
1283.396484	2683.340332
1281.566406	2677.290039
1279.736328	2679.436035
1277.904297	2663.831055
1276.074219	2726.041260
1274.242188	2703.608398
1272.410156	2686.642822
1270.576172	2744.714111
1268.744141	2695.013428
1266.910156	2725.784912
1265.076172	2725.187500
1263.242188	2708.234375
1261.408203	2706.277588
1259.572266	2731.569092
1257.736328	2696.917725
1255.900391	2665.004639
1254.064453	2594.983887
1252.228516	2636.610596
1250.390625	2686.383789
1248.554688	2635.451904
1246.716797	2682.482422
1244.876953	2597.573242
1243.039063	2640.511963
1241.199219	2608.665039
1239.361328	2633.913330
1237.521484	2630.615967
1235.679688	2678.942139
1233.839844	2618.591553
1231.998047	2582.709229
1230.158203	2618.794922
1228.314453	2620.932129
1226.472656	2616.282959
1224.630859	2646.909668
1222.787109	2625.979736
1220.943359	2643.029297
1219.099609	2599.060059
1217.255859	2613.396484
1215.410156	2642.633545
1213.566406	2633.920166
1211.720703	2617.082520
1209.873047	2615.149658
1208.027344	2633.527100
1206.181641	2600.455811
1204.333984	2594.466553
1202.486328	2654.781738
1200.638672	2655.546631
1198.789063	2637.375977
1196.941406	2552.955078
1195.091797	2597.002197
1193.242188	2603.184570
1191.392578	2621.525391
1189.541016	2593.924072
1187.689453	2648.727295
1185.839844	2595.473877
1183.988281	2542.243652
1182.134766	2532.230713
1180.283203	2553.260254
1178.429688	2540.550293
1176.576172	2580.452881
1174.722656	2555.604248
1172.869141	2604.923340
1171.013672	2555.815918
1169.158203	2613.198730
1167.302734	2549.289307
1165.447266	2528.515381
1163.591797	2602.026611
1161.734375	2593.368164
1159.876953	2631.830566
1158.019531	2508.766846
1156.162109	2553.958252
1154.304688	2601.820068
1152.445313	2500.364502
1150.585938	2486.359863
1148.726563	2542.270264
1146.867188	2541.702881
1145.005859	2491.414795
1143.144531	2555.346924
1141.283203	2573.581299
1139.421875	2574.349365
1137.560547	2520.070068
1135.697266	2554.406738
1133.835938	2514.917725
1131.972656	2578.757080
1130.107422	2654.640625
1128.244141	2529.323975
1126.378906	2531.439697
1124.513672	2530.873047
1122.648438	2601.337402
1120.783203	2728.045898
1118.916016	2746.189453
1117.050781	2653.162109
1115.183594	2590.973389
1113.316406	2526.135010
1111.447266	2500.138916
1109.580078	2534.368896
1107.710938	2547.178467
1105.841797	2549.282227
1103.972656	2552.721680
1102.101563	2604.287842
1100.232422	2583.654297
1098.361328	2587.083008
1096.490234	2526.381592
1094.617188	2528.485596
1092.746094	2521.240234
1090.873047	2509.992676
1089.000000	2476.058350
1087.126953	2480.839600
1085.253906	2488.286621
1083.378906	2574.430420
1081.503906	2476.498291
1079.628906	2470.607422
1077.753906	2483.381348
1075.878906	2493.483643
1074.001953	2515.572754
1072.125000	2545.644287
1070.248047	2465.162598
1068.371094	2568.463867
1066.492188	2537.267334
1064.613281	2484.790039
1062.734375	2542.775879
1060.855469	2544.862793
1058.976563	2538.968506
1057.095703	2531.746826
1055.214844	2451.411377
1053.333984	2417.630127
1051.453125	2478.208740
1049.570313	2532.117432
1047.689453	2500.996582
1045.806641	2512.382324
1043.923828	2525.090332
1042.039063	2471.427246
1040.156250	2513.332275
1038.271484	2484.902832
1036.386719	2449.854248
1034.501953	2481.125977
1032.615234	2491.170654
1030.728516	2408.425781
1028.843750	2475.465332
1026.955078	2383.486572
1025.068359	2492.887939
1023.181641	2490.998535
1021.292969	2465.278076
1019.404297	2444.863525
1017.515625	2472.100342
1015.625000	2656.772705
1013.736328	2530.504395
1011.845703	2451.902832
1009.955078	2442.090820
1008.062500	2460.042969
1006.171875	2430.409180
1004.279297	2378.326660
1002.386719	2439.872803
1000.494141	2459.128662
998.599609	2491.579346
996.707031	2529.295654
994.812500	2499.684814
992.917969	2487.240723
991.023438	2505.143555
989.126953	2519.081299
987.230469	2467.082764
985.333984	2453.338135
983.437500	2479.139160
981.541016	2502.292969
979.642578	2538.609619
977.744141	2432.664063
975.845703	2483.464355
973.947266	2452.618896
972.046875	2496.810059
970.148438	2533.085205
968.248047	2486.461914
966.347656	2504.308350
964.445313	2468.232178
962.544922	2442.689453
960.642578	2434.245361
958.740234	2488.881104
956.835938	2465.978027
954.933594	2456.220215
953.029297	2530.510498
951.125000	2477.416504
949.220703	2425.659180
947.316406	2460.536133
945.410156	2423.237549
943.503906	2426.618164
941.597656	2483.763672
939.691406	2342.908936
937.783203	2457.721680
935.876953	2432.259521
933.968750	2421.220947
932.058594	2369.580566
930.150391	2444.993408
928.240234	2358.020264
926.332031	2447.799316
924.419922	2394.890625
922.509766	2396.958008
920.599609	2410.796875
918.687500	2398.473633
916.775391	2365.236084
914.863281	2377.764648
912.949219	2355.001709
911.037109	2372.752930
909.123047	2458.422363
907.208984	2465.693115
905.292969	2427.261719
903.378906	2392.763672
901.462891	2406.569336
899.546875	2424.282715
897.630859	2438.074219
895.712891	2450.554932
893.796875	2434.344238
891.878906	2438.998047
889.960938	2394.124756
888.041016	2388.361328
886.123047	2339.612061
884.203125	2380.749023
882.283203	2399.731201
880.361328	2408.290527
878.441406	2424.654297
876.519531	2334.313721
874.597656	2348.084717
872.675781	2377.456055
870.753906	2402.912842
868.830078	2469.956787
866.906250	2401.803223
864.982422	2446.726563
863.058594	2373.413086
861.132813	2388.449707
859.207031	2473.597168
857.281250	2357.487549
855.355469	2510.091553
853.429688	2408.300049
851.501953	2396.067139
849.574219	2485.003906
847.646484	2458.495117
845.718750	2465.704102
843.789063	2373.111816
841.859375	2319.435303
839.929688	2404.399170
838.000000	2415.498291
836.068359	2370.912598
834.138672	2372.951904
832.207031	2356.870361
830.275391	2404.200439
828.341797	2377.769043
826.408203	2425.071777
824.476563	2429.681152
822.541016	2435.580566
820.607422	2403.995605
818.671875	2438.325684
816.738281	2448.093750
814.802734	2429.442627
812.865234	2430.169189
810.929688	2417.985107
808.992188	2493.572021
807.054688	2391.052734
805.117188	2416.297363
803.179688	2373.172607
801.240234	2478.356201
799.300781	2520.321289
797.361328	2557.111328
795.421875	2519.146973
793.480469	2527.577393
791.539063	2506.380615
789.597656	2567.604004
787.656250	2555.418701
785.712891	2655.213379
783.771484	2793.563965
781.828125	2825.073242
779.882813	2816.696533
777.939453	2843.041504
775.994141	2825.665039
774.048828	2768.452881
772.103516	2697.132813
770.158203	2715.771973
768.210938	2600.828613
766.263672	2555.278076
764.316406	2531.572510
762.369141	2534.830078
760.419922	2526.537598
758.472656	2469.500000
756.523438	2503.550537
754.572266	2515.786377
752.623047	2513.914551
750.671875	2496.663574
748.720703	2485.827148
746.769531	2582.604004
744.818359	2451.361084
742.865234	2464.870605
740.912109	2447.649902
738.958984	2430.436768
737.005859	2470.811523
735.050781	2495.815674
733.095703	2449.187012
731.140625	2520.215332
729.185547	2549.024414
727.228516	2568.873535
725.273438	2559.324707
723.316406	2579.161377
721.357422	2748.414307
719.400391	2720.953125
717.441406	2699.887451
715.482422	2823.046387
713.523438	2858.107178
711.564453	2824.266602
709.603516	2673.110352
707.642578	2659.729248
705.681641	2648.903564
703.720703	2640.631592
701.757813	2600.509766
699.794922	2588.430908
697.832031	2637.487061
695.869141	2657.235352
693.904297	2618.419189
691.939453	2601.255615
689.974609	2641.354736
688.009766	2601.296875
686.044922	2594.322510
684.078125	2612.779541
682.111328	2582.924805
680.144531	2581.041748
678.175781	2486.411377
676.208984	2537.901123
674.240234	2541.108887
672.269531	2498.608643
670.300781	2508.170166
668.330078	2469.504395
666.359375	2439.737549
664.388672	2375.737305
662.417969	2386.585938
660.445313	2406.303467
658.474609	2391.788818
656.500000	2353.203613
654.527344	2375.448242
652.552734	2417.947510
650.580078	2367.985840
648.605469	2358.560059
646.628906	2331.418457
644.654297	2396.663574
642.677734	2382.176270
640.701172	2342.399658
638.724609	2379.775635
636.746094	2393.113770
634.767578	2396.334229
632.789063	2407.134521
630.810547	2342.131836
628.832031	2384.513672
626.851563	2400.358643
624.871094	2379.586670
622.890625	2425.714600
620.908203	2377.186768
618.927734	2376.617676
616.945313	2338.213623
614.962891	2417.088379
612.978516	2412.727539
610.996094	2403.327637
609.011719	2438.030273
607.027344	2388.318848
605.041016	2426.785889
603.056641	2390.949951
601.070313	2464.642578
599.083984	2367.149658
597.095703	2418.165283
595.109375	2500.602051
593.121094	2452.214111
591.132813	2405.106201
589.142578	2390.701416
587.154297	2343.630371
585.164063	2375.730713
583.173828	2337.477539
581.181641	2422.303955
579.191406	2320.030518
577.199219	2357.125000
575.207031	2317.656982
573.214844	2419.968262
571.220703	2351.656494
569.226563	2376.166748
567.232422	2434.512451
565.238281	2371.258789
563.242188	2399.504639
561.248047	2420.220459
559.251953	2402.101318
557.253906	2346.427734
555.257813	2390.924072
553.259766	2412.871826
551.261719	2422.296631
549.263672	2445.476318
547.263672	2441.131592
545.263672	2404.281494
543.263672	2391.198242
541.263672	2355.626953
539.263672	2422.520752
537.261719	2450.660645
535.259766	2456.308838
533.255859	2436.984619
531.253906	2470.092041
529.250000	2414.585693
527.246094	2426.473145
525.242188	2405.926514
523.236328	2425.291260
521.232422	2386.054443
519.226563	2446.542725
517.218750	2488.310791
515.212891	2452.823486
513.205078	2480.869141
511.197266	2520.106934
509.189453	2458.495605
507.179688	2489.007080
505.169922	2490.886963
503.160156	2512.667725
501.150391	2540.655273
499.140625	2573.601807
497.128906	2515.794434
495.117188	2526.362061
493.105469	2605.254395
491.091797	2566.111328
489.078125	2536.921143
487.064453	2580.990967
485.050781	2531.952148
483.035156	2499.067871
481.021484	2495.972656
479.003906	2585.896240
476.988281	2526.983154
474.972656	2553.633057
472.955078	2576.551514
470.937500	2551.136475
468.917969	2538.120605
466.900391	2582.077393
464.880859	2574.011963
462.861328	2621.650879
460.839844	2560.366455
458.820313	2568.394531
456.798828	2585.075928
454.777344	2572.071289
452.753906	2530.638184
450.732422	2646.192383
448.708984	2604.760742
446.685547	2615.233643
444.660156	2598.530029
442.636719	2500.341797
440.611328	2523.175781
438.585938	2531.188477
436.558594	2570.042236
434.533203	2617.510986
432.505859	2573.698242
430.476563	2706.211426
428.449219	2788.122070
426.419922	2947.625244
424.390625	2911.164063
422.361328	2939.999023
420.332031	2929.415527
418.300781	2966.847900
416.269531	2967.338379
414.236328	3072.416016
412.205078	3221.725342
410.171875	3492.712646
408.138672	3943.073975
406.105469	5015.191406
404.070313	8470.849609
402.035156	12262.640625
400.000000	12753.342773
397.964844	11336.739258
395.927734	9352.429688
393.890625	7820.784180
391.853516	7289.958984
389.816406	7223.110840
387.777344	7033.650879
385.738281	6493.609863
383.699219	5545.639160
381.660156	4587.114258
379.619141	3923.121094
377.578125	3511.791260
375.537109	3395.794678
373.494141	3426.770020
371.451172	3846.952881
369.408203	5327.841309
367.365234	8395.898438
365.320313	11457.512695
363.277344	12349.661133
361.232422	11388.153320
359.185547	9104.794922
357.140625	6793.268066
355.093750	5482.097656
353.044922	4779.744141
350.998047	4313.375977
348.949219	4230.503418
346.900391	4039.068359
344.851563	3992.904297
342.802734	4035.796631
340.751953	4106.710938
338.701172	4075.190430
336.650391	4235.022949
334.597656	4590.936035
332.544922	5320.620605
330.492188	5786.891113
328.439453	5642.970703
326.384766	5152.232422
324.330078	4400.121582
322.275391	3894.134277
320.220703	3540.432861
318.164063	3228.252930
316.107422	3160.568359
314.050781	2993.263672
311.992188	2988.851563
309.933594	3050.033203
307.875000	3003.104980
305.816406	2981.695313
303.755859	2887.471680
301.697266	2838.192627
299.634766	2727.069824
297.574219	2739.708740
295.511719	2677.166504
293.449219	2789.208740
291.386719	2803.031982
289.324219	2855.616943
287.259766	2967.524658
285.195313	3118.123535
283.130859	3080.999268
281.064453	3137.086426
278.998047	3121.755127
276.931641	3062.882568
274.865234	3034.273926
272.796875	2999.634277
270.728516	3010.943604
268.660156	3127.378418
266.589844	3062.536865
264.519531	3116.091309
262.449219	3174.447266
260.378906	3271.401367
258.306641	3450.369385
256.234375	3556.851807
254.162109	3782.693359
252.089844	4110.917480
250.015625	4523.360840
247.941406	5188.694824
245.867188	6179.018066
243.791016	7525.396484
241.714844	10704.053711
239.638672	16432.343750
237.562500	23848.822266
235.484375	28512.886719
233.406250	27986.884766
231.328125	23096.378906
229.250000	16789.566406
227.169922	11070.291016
225.089844	7489.619141
223.007813	5695.034180
220.927734	4610.081055
218.845703	3954.402100
216.763672	3696.444824
214.679688	3519.037354
212.595703	3350.122070
210.511719	3213.683838
208.427734	3121.689697
206.341797	2991.377197
204.257813	2940.242676
202.169922	2899.919189
200.083984	2758.984619
197.996094	2710.345459
195.908203	2712.020508
193.820313	2716.088135
191.730469	2709.382324
189.640625	2682.340576
187.550781	2724.685547
185.460938	2712.001953
183.369141	2663.460938
181.277344	2569.530029
179.185547	2577.207764
177.091797	2613.548340
174.998047	2597.325195
172.904297	2581.110352
170.810547	2591.160889
168.714844	2633.422363
166.619141	2639.873535
164.523438	2702.371582
162.425781	2797.026367
160.328125	2804.618164
158.230469	2863.444824
156.132813	3029.455078
154.033203	3805.152344
151.933594	5100.744629
149.832031	6361.117676
147.732422	6865.154297
145.630859	6709.830566
143.529297	5901.627930
141.425781	4853.673828
139.322266	4011.934082
137.218750	3467.749023
135.115234	2922.669678
133.009766	2658.195313
130.904297	2586.227539
128.798828	2526.169434
126.693359	2508.867676
124.585938	2762.088379
122.478516	3176.485596
120.369141	3773.272217
118.259766	4110.108887
116.150391	4168.246094
114.041016	3838.904785
111.929688	3373.522217
109.820313	2917.866943
107.707031	2663.718994
105.595703	2582.507813
103.482422	2665.808838
101.369141	2847.244141
99.255859	2870.113770
97.140625	2913.068359
95.025391	2881.537109
92.910156	2917.373535
90.792969	2858.687500
88.675781	2785.861328
86.558594	2790.995850
84.441406	2661.572754
82.322266	2597.118896
80.203125	2452.483887
78.082031	2292.596924
75.962891	2197.642334
73.841797	2230.035889
71.718750	2177.570313
69.597656	2142.803223
67.474609	2183.426758
65.351563	2119.242188
63.226563	2136.307861
61.103516	2131.006104
58.976563	2150.410156
56.851563	2109.824707
54.724609	2093.951172
52.597656	2159.187744
50.470703	2120.981934
48.341797	2106.291504
46.214844	2093.957275
44.083984	2128.592285
41.955078	2146.774902
39.824219	2188.414795
37.693359	2204.222656
35.560547	2127.373779
33.429688	2115.050537
