#Wave		#Intensity
1766.472656	16842.431641
1764.732422	17240.804688
1762.994141	17341.494141
1761.255859	17240.865234
1759.517578	17253.826172
1757.777344	17331.453125
1756.037109	17124.525391
1754.296875	17272.539063
1752.556641	17216.513672
1750.816406	17266.785156
1749.076172	17067.167969
1747.333984	17140.412109
1745.593750	17196.400391
1743.851563	17134.669922
1742.109375	17427.416016
1740.367188	17209.261719
1738.623047	17230.751953
1736.880859	17151.824219
1735.138672	17115.943359
1733.394531	17018.414063
1731.650391	17024.134766
1729.906250	17118.714844
1728.162109	17121.539063
1726.416016	17049.849609
1724.671875	16892.220703
1722.925781	16896.500000
1721.181641	17026.804688
1719.435547	17000.980469
1717.689453	16718.894531
1715.941406	16904.974609
1714.195313	16926.400391
1712.449219	16924.919922
1710.701172	17046.472656
1708.953125	16830.398438
1707.205078	16740.251953
1705.457031	16976.154297
1703.708984	16632.949219
1701.958984	17064.615234
1700.210938	16780.101563
1698.460938	16822.910156
1696.710938	16659.966797
1694.960938	16881.328125
1693.210938	16691.289063
1691.458984	16664.095703
1689.708984	16711.148438
1687.957031	16402.748047
1686.205078	16683.880859
1684.453125	16512.570313
1682.701172	16394.103516
1680.947266	16247.146484
1679.195313	16359.802734
1677.441406	16781.841797
1675.687500	16650.564453
1673.935547	16376.784180
1672.179688	16549.179688
1670.425781	16750.005859
1668.671875	17281.283203
1666.916016	16550.330078
1665.160156	16328.060547
1663.404297	16383.529297
1661.648438	16569.951172
1659.892578	16461.656250
1658.136719	16342.011719
1656.378906	16441.531250
1654.621094	16644.865234
1652.863281	16365.932617
1651.105469	16357.300781
1649.347656	16280.418945
1647.589844	16187.922852
1645.830078	16150.888672
1644.070313	16300.028320
1642.312500	16099.583008
1640.552734	16217.416992
1638.791016	16411.902344
1637.031250	15988.583008
1635.269531	16188.710938
1633.509766	16235.450195
1631.748047	16258.041016
1629.986328	16255.076172
1628.224609	16002.404297
1626.460938	15937.065430
1624.699219	15849.053711
1622.935547	16203.487305
1621.171875	16064.414063
1619.408203	16040.203125
1617.644531	16116.620117
1615.880859	15986.128906
1614.115234	15820.265625
1612.351563	16161.542969
1610.585938	15978.706055
1608.820313	16158.407227
1607.054688	16091.714844
1605.287109	15858.027344
1603.521484	16047.545898
1601.753906	15986.559570
1599.986328	15893.055664
1598.218750	15943.846680
1596.451172	15960.676758
1594.683594	15855.908203
1592.914063	15811.958984
1591.144531	15861.298828
1589.376953	16237.024414
1587.605469	15811.573242
1585.835938	15688.550781
1584.066406	15773.168945
1582.294922	15751.853516
1580.525391	15593.609375
1578.753906	15600.557617
1576.982422	15632.901367
1575.210938	15601.738281
1573.437500	15684.845703
1571.666016	15755.224609
1569.892578	15712.765625
1568.119141	15812.711914
1566.345703	15675.810547
1564.572266	15476.947266
1562.796875	15492.330078
1561.023438	15638.718750
1559.248047	15583.632813
1557.472656	15251.142578
1555.697266	15522.792969
1553.919922	15515.612305
1552.144531	15561.913086
1550.367188	15670.107422
1548.591797	15405.432617
1546.814453	15225.251953
1545.035156	15454.385742
1543.257813	15614.530273
1541.480469	15359.895508
1539.701172	15365.380859
1537.921875	15224.711914
1536.142578	15568.820313
1534.363281	15067.144531
1532.582031	15350.751953
1530.802734	15256.519531
1529.021484	15443.104492
1527.240234	15263.262695
1525.458984	15167.689453
1523.677734	15313.483398
1521.894531	15167.429688
1520.113281	15014.416016
1518.330078	15336.833984
1516.546875	15059.061523
1514.763672	15159.864258
1512.980469	15147.106445
1511.195313	14994.229492
1509.410156	14931.069336
1507.626953	15072.424805
1505.839844	15059.681641
1504.054688	15192.550781
1502.269531	15287.569336
1500.482422	15146.022461
1498.697266	14980.741211
1496.910156	14818.318359
1495.121094	15107.748047
1493.333984	15055.837891
1491.546875	14943.821289
1489.757813	15178.529297
1487.968750	15062.334961
1486.179688	14958.758789
1484.390625	14940.444336
1482.601563	14845.308594
1480.810547	15103.530273
1479.019531	14882.731445
1477.228516	14624.324219
1475.437500	14839.162109
1473.646484	14624.119141
1471.855469	14883.510742
1470.062500	14685.277344
1468.269531	14685.152344
1466.476563	14746.375000
1464.683594	14709.988281
1462.890625	14652.705078
1461.095703	14330.679688
1459.300781	14525.662109
1457.505859	14649.524414
1455.710938	14496.195313
1453.916016	14544.819336
1452.121094	14611.519531
1450.324219	14491.684570
1448.527344	14472.087891
1446.730469	14455.277344
1444.933594	14324.411133
1443.134766	14427.233398
1441.337891	14375.673828
1439.539063	14310.230469
1437.740234	14547.803711
1435.941406	14517.086914
1434.142578	14298.822266
1432.341797	14508.465820
1430.541016	14268.065430
1428.742188	14526.222656
1426.941406	14459.434570
1425.138672	14438.472656
1423.337891	14452.207031
1421.535156	14255.055664
1419.732422	14426.943359
1417.929688	14444.824219
1416.126953	14239.467773
1414.324219	14265.691406
1412.519531	14212.904297
1410.716797	14090.851563
1408.912109	14061.666992
1407.107422	14100.362305
1405.300781	14418.773438
1403.496094	14238.617188
1401.689453	14105.597656
1399.882813	14047.363281
1398.076172	14102.614258
1396.269531	14041.633789
1394.460938	14166.014648
1392.654297	14304.170898
1390.845703	14176.815430
1389.037109	14012.188477
1387.228516	13973.388672
1385.417969	14085.208984
1383.609375	14039.497070
1381.798828	13837.732422
1379.988281	13786.562500
1378.177734	13920.409180
1376.367188	13993.465820
1374.554688	14078.910156
1372.742188	13980.812500
1370.929688	13771.017578
1369.117188	13939.197266
1367.304688	14024.573242
1365.492188	14076.825195
1363.677734	13960.899414
1361.863281	13898.761719
1360.048828	13723.673828
1358.234375	13712.572266
1356.417969	13863.979492
1354.603516	13676.607422
1352.787109	13876.135742
1350.970703	13688.834961
1349.154297	13544.266602
1347.335938	13742.315430
1345.519531	13689.947266
1343.701172	13563.338867
1341.882813	13761.254883
1340.064453	13820.250977
1338.244141	13748.661133
1336.425781	13774.654297
1334.605469	13560.229492
1332.785156	13948.839844
1330.964844	13613.624023
1329.144531	13527.039063
1327.322266	13712.261719
1325.500000	13585.890625
1323.677734	13507.590820
1321.855469	13571.982422
1320.033203	13536.229492
1318.208984	13444.271484
1316.386719	13525.080078
1314.562500	13353.664063
1312.738281	13350.865234
1310.912109	13130.233398
1309.087891	13227.468750
1307.261719	13267.144531
1305.435547	13510.805664
1303.609375	13413.515625
1301.783203	13178.037109
1299.955078	13261.467773
1298.128906	13199.852539
1296.300781	13131.422852
1294.472656	12971.402344
1292.644531	13333.694336
1290.814453	13164.126953
1288.984375	13306.205078
1287.156250	13164.036133
1285.326172	13210.431641
1283.494141	13012.345703
1281.664063	13464.275391
1279.832031	13245.739258
1278.000000	13343.933594
1276.167969	13182.821289
1274.335938	13332.825195
1272.503906	13189.511719
1270.669922	13151.259766
1268.835938	13223.457031
1267.001953	12923.496094
1265.167969	12923.477539
1263.332031	12890.756836
1261.498047	13043.311523
1259.662109	12952.012695
1257.826172	12981.936523
1255.990234	12964.199219
1254.152344	13013.159180
1252.316406	12761.365234
1250.478516	12934.148438
1248.640625	12904.187500
1246.802734	12765.444336
1244.962891	12893.243164
1243.123047	13053.609375
1241.285156	12957.047852
1239.445313	13003.194336
1237.603516	12946.076172
1235.763672	12772.178711
1233.921875	12854.992188
1232.080078	12873.961914
1230.238281	12877.991211
1228.396484	12886.087891
1226.554688	12952.518555
1224.710938	12854.791992
1222.867188	12828.980469
1221.023438	12685.219727
1219.179688	12626.918945
1217.333984	12675.706055
1215.490234	12621.494141
1213.644531	12969.640625
1211.798828	12729.834961
1209.951172	12710.846680
1208.105469	12691.865234
1206.257813	12731.090820
1204.410156	12805.481445
1202.562500	12686.371094
1200.714844	12468.567383
1198.865234	12517.266602
1197.017578	12507.805664
1195.167969	12369.929688
1193.318359	12388.881836
1191.466797	12357.831055
1189.617188	12345.704102
1187.765625	12256.597656
1185.914063	12452.440430
1184.062500	12627.946289
1182.210938	12287.785156
1180.357422	12407.921875
1178.503906	12321.587891
1176.650391	12368.824219
1174.796875	12325.686523
1172.943359	12324.361328
1171.087891	12406.609375
1169.232422	12317.666016
1167.376953	12306.907227
1165.521484	12350.035156
1163.666016	12139.946289
1161.808594	12261.184570
1159.951172	12325.829102
1158.093750	12113.185547
1156.236328	12153.609375
1154.378906	12091.769531
1152.519531	12114.692383
1150.660156	12319.142578
1148.800781	12117.480469
1146.941406	12026.124023
1145.080078	11942.870117
1143.220703	12887.478516
1141.359375	12273.476563
1139.498047	12456.127930
1137.634766	12355.391602
1135.773438	11929.838867
1133.910156	12007.757813
1132.046875	11919.256836
1130.183594	12022.629883
1128.320313	11910.019531
1126.455078	11902.048828
1124.589844	12020.100586
1122.724609	12038.913086
1120.859375	12134.098633
1118.994141	11878.226563
1117.126953	11930.541016
1115.259766	11874.357422
1113.392578	12053.838867
1111.525391	11862.455078
1109.656250	11632.342773
1107.789063	11799.712891
1105.919922	11738.261719
1104.050781	11829.300781
1102.181641	11846.756836
1100.310547	11925.697266
1098.439453	11848.229492
1096.568359	11852.303711
1094.697266	11822.976563
1092.826172	11863.113281
1090.953125	11808.421875
1089.082031	11700.352539
1087.208984	11695.103516
1085.333984	11767.255859
1083.460938	11523.176758
1081.585938	11742.056641
1079.712891	11820.814453
1077.837891	11611.545898
1075.960938	11819.594727
1074.085938	11746.350586
1072.208984	11661.147461
1070.332031	11763.805664
1068.455078	11739.896484
1066.578125	11620.126953
1064.699219	11858.506836
1062.822266	11910.451172
1060.943359	11577.818359
1059.064453	11524.702148
1057.183594	11757.566406
1055.304688	11616.667969
1053.423828	11447.912109
1051.542969	11530.440430
1049.662109	11461.440430
1047.779297	11610.355469
1045.896484	11597.152344
1044.015625	11417.958008
1042.130859	11379.575195
1040.248047	11501.823242
1038.365234	11548.370117
1036.480469	11572.339844
1034.595703	11434.464844
1032.710938	11492.927734
1030.824219	11479.764648
1028.939453	11420.208984
1027.052734	11654.901367
1025.166016	11590.030273
1023.279297	11454.976563
1021.390625	11565.002930
1019.503906	11518.729492
1017.615234	11404.958984
1015.726563	11503.006836
1013.835938	11514.998047
1011.947266	11437.021484
1010.056641	11315.429688
1008.166016	11295.713867
1006.275391	11451.841797
1004.384766	11459.859375
1002.492188	11396.511719
1000.599609	11322.621094
998.707031	11203.851563
996.814453	11227.759766
994.919922	11243.733398
993.027344	11287.419922
991.132813	11440.621094
989.238281	11121.400391
987.341797	11300.950195
985.447266	11244.348633
983.550781	11309.076172
981.654297	11054.758789
979.757813	11278.968750
977.859375	11286.981445
975.962891	11389.839844
974.064453	11260.848633
972.166016	11117.428711
970.267578	11315.038086
968.367188	11054.529297
966.466797	11162.581055
964.566406	11236.378906
962.666016	11178.613281
960.765625	11152.431641
958.863281	11097.337891
956.960938	11063.298828
955.058594	10974.081055
953.156250	11145.035156
951.253906	11359.258789
949.349609	11100.625000
947.445313	11208.413086
945.541016	11219.015625
943.634766	11142.999023
941.730469	11171.978516
939.824219	11132.733398
937.917969	10997.768555
936.011719	11075.270508
934.103516	11193.372070
932.197266	11190.847656
930.289063	11129.362305
928.380859	10930.356445
926.470703	10787.754883
924.562500	10948.992188
922.652344	10857.502930
920.742188	10934.886719
918.832031	11000.458008
916.919922	11085.621094
915.009766	10871.237305
913.097656	10909.315430
911.185547	11015.354492
909.271484	11100.433594
907.359375	11198.539063
905.445313	10962.156250
903.531250	10870.859375
901.617188	11025.097656
899.701172	11081.350586
897.787109	11098.418945
895.871094	11054.146484
893.955078	10948.575195
892.037109	11075.224609
890.121094	10934.483398
888.203125	10938.523438
886.285156	11087.244141
884.367188	10984.384766
882.447266	10981.892578
880.529297	10940.322266
878.609375	11019.882813
876.689453	10836.404297
874.767578	10865.183594
872.847656	10830.180664
870.925781	10865.451172
869.003906	11022.980469
867.082031	10937.242188
865.158203	10915.251953
863.234375	10916.668945
861.312500	10760.831055
859.386719	10875.321289
857.462891	10970.272461
855.537109	10808.031250
853.613281	10786.093750
851.687500	10627.860352
849.759766	10699.416992
847.833984	10937.024414
845.906250	10745.133789
843.978516	10828.283203
842.050781	10824.517578
840.123047	10844.086914
838.193359	10841.612305
836.263672	10743.251953
834.333984	10906.621094
832.404297	10954.643555
830.472656	10901.641602
828.542969	10809.825195
826.611328	10674.042969
824.679688	10903.229492
822.746094	10964.129883
820.814453	10942.221680
818.880859	10732.822266
816.947266	10882.919922
815.011719	11403.901367
813.078125	10817.206055
811.142578	10786.308594
809.207031	10840.670898
807.271484	10769.748047
805.333984	10741.460938
803.398438	10839.678711
801.460938	10624.271484
799.523438	10716.017578
797.583984	10918.648438
795.646484	10838.771484
793.707031	10707.359375
791.767578	10818.333008
789.828125	10719.200195
787.886719	10662.628906
785.945313	10819.903320
784.003906	10800.678711
782.062500	10941.109375
780.121094	10919.289063
778.177734	10942.518555
776.234375	10772.745117
774.291016	10757.406250
772.347656	10497.730469
770.402344	10616.173828
768.458984	10878.529297
766.513672	10782.211914
764.566406	10647.393555
762.621094	10626.959961
760.673828	10562.870117
758.726563	10591.251953
756.779297	10873.783203
754.832031	10755.776367
752.882813	10662.201172
750.933594	10788.019531
748.984375	10700.890625
747.035156	10824.076172
745.083984	10708.774414
743.134766	10646.070313
741.183594	10716.647461
739.230469	10753.884766
737.279297	10762.928711
735.326172	10613.198242
733.373047	10775.879883
731.419922	10722.198242
729.466797	10649.348633
727.511719	10777.367188
725.556641	10681.514648
723.601563	10656.030273
721.646484	10661.236328
719.689453	10702.222656
717.734375	10862.019531
715.777344	10581.024414
713.818359	10655.203125
711.861328	10563.357422
709.902344	10549.421875
707.943359	10580.161133
705.984375	10710.410156
704.025391	10900.553711
702.064453	10776.867188
700.103516	10695.313477
698.142578	10500.341797
696.181641	10770.645508
694.218750	10749.034180
692.255859	10770.744141
690.292969	10737.677734
688.330078	10709.718750
686.367188	10568.474609
684.402344	10560.928711
682.437500	10348.527344
680.472656	10610.722656
678.505859	10608.256836
676.541016	10609.604492
674.574219	10496.541016
672.607422	10436.907227
670.638672	10576.790039
668.671875	10541.299805
666.703125	10816.987305
664.734375	10527.504883
662.763672	10559.328125
660.794922	10534.024414
658.824219	10397.070313
656.853516	10409.870117
654.882813	10524.125000
652.910156	10393.605469
650.939453	10509.076172
648.966797	10365.944336
646.992188	10463.625977
645.019531	10589.130859
643.044922	10519.534180
641.070313	10677.885742
639.095703	10409.551758
637.121094	10361.557617
635.144531	10328.769531
633.167969	10623.634766
631.191406	10316.352539
629.214844	10466.936523
627.238281	10460.696289
625.259766	10692.058594
623.281250	10506.342773
621.300781	10594.837891
619.322266	10516.580078
617.341797	10588.614258
615.361328	10448.537109
613.380859	10282.020508
611.400391	10472.661133
609.417969	10550.940430
607.435547	10499.280273
605.453125	10499.339844
603.468750	10553.603516
601.486328	10469.208008
599.501953	10498.250977
597.517578	10581.445313
595.531250	10406.422852
593.546875	10532.407227
591.560547	10455.663086
589.574219	10352.524414
587.587891	10342.541992
585.599609	10683.522461
583.611328	10317.555664
581.623047	10541.448242
579.634766	10389.380859
577.644531	10603.093750
575.656250	10566.673828
573.666016	10348.127930
571.673828	10462.484375
569.683594	10495.174805
567.691406	10520.317383
565.699219	10589.370117
563.707031	10507.829102
561.714844	10394.965820
559.720703	10466.503906
557.726563	10471.556641
555.732422	10669.641602
553.738281	10653.336914
551.742188	10559.360352
549.746094	10545.591797
547.750000	10799.821289
545.753906	10648.280273
543.755859	10784.701172
541.757813	10583.176758
539.759766	10636.972656
537.761719	10491.862305
535.761719	10575.665039
533.761719	10623.169922
531.761719	10503.161133
529.761719	10428.193359
527.759766	10609.375000
525.759766	10461.971680
523.757813	10505.694336
521.753906	10483.227539
519.751953	10488.229492
517.748047	10404.629883
515.744141	10543.134766
513.740234	10555.598633
511.734375	10684.023438
509.730469	10457.083984
507.724609	10723.815430
505.716797	10712.543945
503.710938	10656.427734
501.703125	10584.146484
499.695313	10449.637695
497.687500	10554.211914
495.679688	10590.282227
493.669922	10521.811523
491.660156	10408.588867
489.650391	10633.708008
487.638672	10653.554688
485.628906	10624.909180
483.617188	10562.719727
481.605469	10490.619141
479.591797	10501.780273
477.580078	10664.450195
475.566406	10712.810547
473.550781	10710.251953
471.537109	10630.748047
469.521484	10557.485352
467.507813	10381.298828
465.490234	10542.515625
463.474609	10496.599609
461.457031	10593.251953
459.441406	10637.808594
457.421875	10595.614258
455.404297	10699.601563
453.384766	10590.539063
451.367188	10480.288086
449.345703	10404.747070
447.326172	10608.910156
445.306641	10506.153320
443.285156	10679.270508
441.263672	10394.764648
439.240234	10502.298828
437.218750	10625.847656
435.195313	10949.518555
433.171875	11263.149414
431.146484	11372.835938
429.123047	11649.166016
427.097656	11696.978516
425.072266	11694.163086
423.044922	11719.727539
421.019531	11369.025391
418.992188	11514.285156
416.964844	11595.355469
414.935547	11670.221680
412.908203	11631.666992
410.878906	11992.339844
408.849609	12775.356445
406.820313	12805.523438
404.789063	13102.853516
402.757813	13500.975586
400.726563	14245.945313
398.695313	15843.183594
396.662109	17748.390625
394.628906	19243.164063
392.595703	21286.779297
390.562500	23229.839844
388.527344	22549.572266
386.492188	19870.757813
384.457031	16560.685547
382.421875	14031.971680
380.384766	12735.833984
378.347656	12247.932617
376.310547	12227.781250
374.273438	12212.544922
372.234375	12707.529297
370.195313	12771.881836
368.156250	12977.177734
366.117188	12890.682617
364.076172	12506.484375
362.035156	12193.519531
359.994141	11703.125977
357.953125	11593.753906
355.910156	11927.555664
353.867188	11813.284180
351.824219	12253.310547
349.779297	12406.891602
347.736328	12587.299805
345.691406	12483.975586
343.644531	12908.733398
341.599609	12663.624023
339.552734	12758.266602
337.505859	13071.493164
335.458984	14120.892578
333.412109	15056.241211
331.363281	14984.208008
329.314453	14313.084961
327.265625	13681.324219
325.214844	12979.133789
323.164063	12411.410156
321.113281	12052.415039
319.062500	11893.462891
317.009766	11766.266602
314.958984	11792.613281
312.906250	12151.410156
310.851563	12340.792969
308.798828	12325.587891
306.744141	11914.888672
304.689453	11341.362305
302.632813	11174.368164
300.578125	10991.645508
298.521484	10823.600586
296.464844	10631.327148
294.406250	11039.419922
292.349609	11197.054688
290.291016	11163.929688
288.232422	11371.236328
286.171875	11677.980469
284.113281	11677.523438
282.052734	11509.625977
279.990234	11449.768555
277.929688	11455.426758
275.867188	11394.395508
273.804688	11446.121094
271.742188	11359.670898
269.677734	11200.570313
267.615234	11380.689453
265.550781	11616.420898
263.484375	11623.224609
261.419922	11697.800781
259.353516	12204.317383
257.287109	12572.671875
255.218750	12870.695313
253.152344	13589.342773
251.083984	14754.894531
249.015625	16078.181641
246.945313	18213.939453
244.876953	21590.373047
242.806641	28334.380859
240.736328	41436.382813
238.664063	60104.648438
236.591797	71052.671875
234.519531	62857.855469
232.447266	45248.574219
230.375000	30625.230469
228.300781	21711.259766
226.226563	17254.990234
224.150391	15108.345703
222.076172	13563.872070
220.000000	12682.537109
217.923828	12105.049805
215.847656	11905.812500
213.769531	11426.281250
211.691406	11463.116211
209.613281	11453.022461
207.533203	11072.563477
205.455078	10858.195313
203.375000	10843.447266
201.292969	10706.142578
199.212891	10714.259766
197.130859	10723.572266
195.048828	10354.664063
192.966797	10586.128906
190.882813	10500.654297
188.798828	10457.213867
186.714844	10611.705078
184.630859	10598.233398
182.544922	10584.766602
180.458984	10631.232422
178.373047	10430.832031
176.285156	10553.977539
174.199219	10528.550781
172.109375	10446.860352
170.021484	10407.104492
167.933594	10554.058594
165.843750	10410.202148
163.753906	10728.124023
161.662109	10909.558594
159.572266	11229.579102
157.480469	11036.684570
155.386719	12010.126953
153.294922	15842.978516
151.201172	19111.355469
149.107422	18410.382813
147.013672	16921.919922
144.917969	17252.949219
142.824219	15254.889648
140.726563	12642.367188
138.630859	11180.730469
136.533203	10720.076172
134.435547	10686.347656
132.337891	10479.855469
130.240234	10429.522461
128.140625	10696.008789
126.041016	10886.154297
123.941406	11667.803711
121.839844	15463.431641
119.738281	18505.193359
117.636719	16766.248047
115.535156	14275.475586
113.431641	11743.181641
111.328125	11008.036133
109.224609	10756.867188
107.119141	10605.609375
105.013672	10712.135742
102.908203	11171.230469
100.802734	11753.533203
98.695313	11865.607422
96.587891	11665.605469
94.480469	11904.548828
92.373047	12196.725586
90.263672	12118.887695
88.154297	11367.922852
86.044922	10818.768555
83.933594	10660.791016
81.822266	9961.702148
79.710938	10081.061523
77.597656	9703.240234
75.486328	9699.537109
73.373047	9551.507813
71.257813	9493.437500
69.144531	9525.255859
67.029297	9442.395508
64.914063	9344.211914
62.798828	9548.531250
60.681641	9462.179688
58.564453	9510.486328
56.447266	9410.018555
54.328125	9339.106445
52.208984	9427.517578
50.089844	9585.477539
47.970703	9600.658203
45.849609	9562.773438
43.728516	9529.621094
41.607422	9514.160156
39.484375	9396.212891
37.363281	9472.655273
35.238281	9501.957031
33.115234	9490.041016
30.990234	9581.690430
28.865234	9634.463867
26.740234	9566.058594
24.615234	9435.364258
22.488281	9415.242188
20.361328	9496.201172
18.232422	9570.066406
16.105469	9690.875000
13.976563	9552.088867
11.845703	9567.171875
9.716797	9512.995117
7.585938	9456.498047
5.455078	9607.666016
3.322266	10159.844727
1.191406	10205.218750
-0.941406	9963.386719
-3.076172	9875.193359
-5.208984	9659.345703
-7.343750	9648.576172
-9.478516	9486.761719
-11.615234	9583.734375
-13.750000	9508.620117
-15.886719	9527.141602
-18.025391	9471.961914
-20.162109	9515.035156
-22.300781	9487.940430
-24.439453	9540.332031
-26.580078	9427.945313
-28.720703	10153.146484
-30.861328	9836.289063
-33.001953	9767.102539
-35.144531	9549.721680
-37.287109	9749.020508
-39.429688	9459.431641
-41.574219	9468.547852
-43.718750	9495.145508
-45.863281	9654.604492
-48.007813	9591.406250
-50.154297	9503.775391
-52.300781	9672.412109
-54.447266	9659.319336
-56.595703	9433.214844
-58.744141	9406.224609
-60.892578	9389.716797
-63.042969	9643.047852
-65.191406	9639.269531
-67.343750	9464.612305
-69.494141	9424.853516
-71.646484	9609.342773
-73.798828	9494.064453
-75.951172	9556.505859
-78.105469	9516.754883
-80.259766	9523.445313
-82.414063	9651.953125
-84.568359	9699.194336
-86.724609	9574.787109
-88.880859	9788.955078
-91.039063	9642.565430
-93.197266	9614.434570
-95.355469	9654.658203
-97.513672	9508.417969
-99.673828	9416.666016
-101.833984	9572.639648
-103.994141	9713.484375
-106.154297	9689.991211
-108.316406	9582.089844
-110.478516	9669.625977
-112.642578	9381.482422
-114.806641	9658.515625
-116.970703	9527.627930
-119.134766	9595.440430
-121.300781	9511.971680
-123.466797	9495.488281
-125.632813	9638.246094
-127.800781	9544.444336
-129.968750	9757.450195
-132.136719	9606.016602
-134.304688	9594.126953
-136.474609	9688.250000
-138.646484	9329.603516
-140.816406	9544.662109
-142.988281	9479.832031
-145.160156	9555.455078
-147.332031	9576.951172
-149.505859	9616.838867
-151.679688	9488.797852
-153.853516	9645.950195
-156.029297	9736.348633
-158.205078	9685.359375
-160.380859	9651.627930
-162.558594	9642.027344
-164.736328	9575.026367
-166.914063	9613.653320
-169.091797	9612.095703
-171.271484	9642.655273
-173.451172	9645.670898
-175.632813	9614.288086
-177.814453	9410.999023
-179.996094	9465.630859
-182.177734	9790.566406
-184.361328	9605.712891
-186.544922	9692.290039
-188.728516	9634.605469
-190.914063	9660.476563
-193.099609	9633.711914
-195.285156	9605.816406
-197.472656	9567.643555
-199.660156	9531.776367
-201.847656	9546.199219
-204.037109	9464.661133
-206.226563	9637.816406
