#Wave		#Intensity
3199.122070	7090.538574
3198.353516	7064.518555
3197.584961	7056.846191
3196.815430	7016.661133
3196.046875	7048.009766
3195.277344	7040.343262
3194.508789	7016.429688
3193.739258	6927.537598
3192.969727	7059.591797
3192.200195	6798.564453
3191.429688	6969.568359
3190.660156	6991.145508
3189.889648	6947.782715
3189.120117	6862.234863
3188.349609	7065.569336
3187.579102	6944.334473
3186.808594	6875.051270
3186.038086	6825.254395
3185.267578	6947.374512
3184.496094	7053.239746
3183.725586	6860.774902
3182.954102	7044.421875
3182.182617	7059.462402
3181.411133	6944.868652
3180.639648	6982.601563
3179.868164	6984.685547
3179.096680	7122.811035
3178.324219	6933.794922
3177.552734	6997.407715
3176.780273	7002.724609
3176.007813	6978.906738
3175.235352	7162.228027
3174.462891	6934.529297
3173.690430	6910.733887
3172.916992	6980.755859
3172.144531	6989.303223
3171.371094	7030.184570
3170.597656	7009.621582
3169.824219	6943.807129
3169.050781	7065.479004
3168.277344	7158.025879
3167.503906	6836.963379
3166.729492	6945.669922
3165.956055	7148.010254
3165.181641	7020.876953
3164.407227	7032.629883
3163.632813	7089.576660
3162.858398	7020.617188
3162.083984	7051.727539
3161.309570	7034.425781
3160.534180	6965.508789
3159.759766	7061.126953
3158.984375	7076.083008
3158.208984	6994.294434
3157.433594	7047.945801
3156.658203	7108.026855
3155.881836	7035.941895
3155.106445	7073.446289
3154.331055	7036.832520
3153.554688	7145.196289
3152.778320	6979.745117
3152.001953	7068.759277
3151.225586	6983.872070
3150.449219	7143.680664
3149.672852	6955.807129
3148.895508	7096.257813
3148.118164	7188.395508
3147.341797	6965.218262
3146.564453	7076.646973
3145.787109	7014.367676
3145.009766	6932.814941
3144.232422	6957.386230
3143.454102	6924.087891
3142.676758	7080.425781
3141.898438	7040.690430
3141.120117	6936.709961
3140.341797	7015.869629
3139.563477	7101.426758
3138.785156	6913.992676
3138.006836	7118.336914
3137.227539	7158.890137
3136.449219	7128.815918
3135.669922	6842.015137
3134.890625	7116.825684
3134.111328	7038.650391
3133.332031	7063.144043
3132.552734	6962.553711
3131.773438	7112.106445
3130.993164	6934.596191
3130.212891	6955.884766
3129.433594	6999.600098
3128.653320	6934.351074
3127.873047	6869.123047
3127.092773	6980.101074
3126.311523	7017.376953
3125.531250	6955.369629
3124.750000	6976.627930
3123.969727	7180.349121
3123.188477	7063.933105
3122.407227	7238.770020
3121.625977	7115.982910
3120.843750	6999.634766
3120.062500	7081.636230
3119.281250	7074.065430
3118.499023	7101.668945
3117.716797	7126.066406
3116.934570	6933.097168
3116.152344	7168.444336
3115.370117	7141.691895
3114.587891	6993.542969
3113.804688	6950.856445
3113.022461	7007.190918
3112.239258	7012.414551
3111.456055	6893.119141
3110.672852	7057.970215
3109.889648	6983.390137
3109.106445	7071.583008
3108.323242	7146.983887
3107.539063	6903.350586
3106.755859	6918.152344
3105.971680	7082.833496
3105.187500	7234.705566
3104.403320	6911.519531
3103.619141	7002.807617
3102.834961	7052.635742
3102.049805	7003.668945
3101.265625	6970.647461
3100.480469	6972.675293
3099.695313	7105.278809
3098.910156	7062.703125
3098.125000	6924.629883
3097.339844	7082.640137
3096.553711	7065.550293
3095.768555	6914.815918
3094.982422	7126.835938
3094.197266	7116.108887
3093.411133	7200.802246
3092.625000	7059.684570
3091.838867	7083.947754
3091.051758	6933.358887
3090.265625	7040.274414
3089.478516	7134.442871
3088.692383	7117.370605
3087.905273	7230.555176
3087.118164	7226.177734
3086.331055	7031.252441
3085.542969	7188.848633
3084.755859	7095.585938
3083.968750	6938.869629
3083.180664	7055.143555
3082.392578	6949.256348
3081.604492	7002.036621
3080.816406	7010.389160
3080.028320	7110.715332
3079.240234	7242.718262
3078.451172	7044.940918
3077.663086	7008.899902
3076.874023	7204.243164
3076.084961	7187.200684
3075.295898	7040.257813
3074.506836	7010.576660
3073.717773	7158.277832
3072.928711	7052.582031
3072.138672	7051.409180
3071.348633	7205.361328
3070.559570	7242.146484
3069.769531	7022.574707
3068.979492	7021.407227
3068.189453	6994.930176
3067.398438	6984.277344
3066.608398	7084.320801
3065.817383	7225.437988
3065.026367	7224.236328
3064.236328	7134.524902
3063.445313	7089.090820
3062.654297	7100.551758
3061.862305	7184.677246
3061.071289	7256.138184
3060.279297	7182.287109
3059.488281	6918.985840
3058.696289	7072.546875
3057.904297	7203.958496
3057.112305	7123.851563
3056.320313	6961.720215
3055.527344	7222.450684
3054.735352	7066.666016
3053.942383	7030.793457
3053.150391	7086.390625
3052.357422	7129.355957
3051.564453	7307.871582
3050.770508	7246.764648
3049.977539	7091.129883
3049.184570	7197.086914
3048.390625	7095.071289
3047.597656	7251.392090
3046.803711	7196.643555
3046.009766	7066.337402
3045.215820	7197.396973
3044.420898	7148.979492
3043.626953	7150.937012
3042.833008	7127.718750
3042.038086	7145.410156
3041.243164	7043.553711
3040.448242	7161.903320
3039.653320	7295.937500
3038.858398	7197.250488
3038.063477	7136.320801
3037.267578	7075.411133
3036.472656	7083.661133
3035.676758	7154.751953
3034.880859	7301.218750
3034.084961	7212.050781
3033.289063	7110.350586
3032.493164	6986.702637
3031.696289	6922.748047
3030.900391	7241.777344
3030.103516	7055.398438
3029.306641	7226.813477
3028.509766	7285.221680
3027.712891	7171.078125
3026.916016	7166.747070
3026.119141	7090.291504
3025.321289	6944.882813
3024.524414	7225.863770
3023.726563	7158.838379
3022.928711	7120.040039
3022.130859	7172.120117
3021.333008	7114.535156
3020.534180	7053.836914
3019.736328	7146.613281
3018.937500	7242.490234
3018.139648	7256.937012
3017.340820	7252.597168
3016.541992	7348.407715
3015.743164	7275.213379
3014.944336	7283.386719
3014.144531	7235.251465
3013.345703	7268.448730
3012.545898	7242.221191
3011.746094	7272.279297
3010.946289	7183.539063
3010.146484	7194.843750
3009.346680	7249.893555
3008.546875	7151.827637
3007.746094	7153.759277
3006.945313	7280.625488
3006.145508	7366.852051
3005.344727	7225.118164
3004.543945	7526.730957
3003.743164	7278.892578
3002.941406	7171.572266
3002.140625	7304.547852
3001.338867	7181.659668
3000.538086	7439.357910
2999.736328	7269.707031
2998.934570	7468.058594
2998.132813	7354.577148
2997.330078	7381.404785
2996.528320	7255.508789
2995.725586	7176.395996
2994.923828	7368.365234
2994.121094	7242.533691
2993.318359	7272.470703
2992.515625	7187.179199
2991.712891	7192.207031
2990.909180	7262.605957
2990.106445	7370.330566
2989.302734	7384.660645
2988.499023	7277.640137
2987.695313	7170.654785
2986.891602	7433.841797
2986.087891	7385.953125
2985.284180	7269.674805
2984.479492	7200.066895
2983.675781	7357.389648
2982.871094	7129.292480
2982.066406	7239.964844
2981.261719	7179.728027
2980.457031	7464.304199
2979.652344	7410.260742
2978.846680	7275.500000
2978.041992	7255.657715
2977.236328	7254.446289
2976.430664	7312.205078
2975.625000	7171.343262
2974.819336	7244.608887
2974.013672	7187.561523
2973.208008	7257.697754
2972.401367	7454.954102
2971.594727	7298.682129
2970.789063	7291.263184
2969.982422	7283.846680
2969.175781	7511.956055
2968.368164	7442.535156
2967.561523	7301.884277
2966.754883	7229.423828
2965.947266	7308.736328
2965.139648	7214.623535
2964.332031	7309.391113
2963.524414	7212.213867
2962.716797	7251.242188
2961.909180	7379.993164
2961.100586	7242.632324
2960.292969	7284.728516
2959.484375	7441.243652
2958.675781	7334.863281
2957.867188	7225.426758
2957.058594	7202.581055
2956.250000	7108.655762
2955.440430	7224.895996
2954.631836	7356.545410
2953.822266	7333.691895
2953.012695	7366.441406
2952.203125	7402.268066
2951.393555	7166.372070
2950.583984	7279.396973
2949.773438	7293.613281
2948.963867	7304.738770
2948.153320	7374.485840
2947.342773	7283.787109
2946.532227	7516.993652
2945.721680	7561.997070
2944.911133	7292.468750
2944.100586	7223.424316
2943.289063	7228.381836
2942.478516	7368.942871
2941.666992	7336.896484
2940.855469	7415.773926
2940.043945	7266.674805
2939.232422	7385.575195
2938.419922	7430.531250
2937.608398	7438.524902
2936.795898	7384.949219
2935.983398	7436.037598
2935.171875	7367.093262
2934.358398	7372.014648
2933.545898	7336.942383
2932.733398	7464.897949
2931.920898	7451.348145
2931.107422	7431.653320
2930.293945	7350.480469
2929.480469	7281.629395
2928.666992	7344.948242
2927.853516	7426.682129
2927.040039	7299.480469
2926.226563	7276.757813
2925.412109	7336.963379
2924.597656	7572.174316
2923.783203	7359.069336
2922.968750	7456.065430
2922.154297	7442.541504
2921.339844	7413.678711
2920.525391	7470.731445
2919.709961	7349.846680
2918.894531	7351.683594
2918.080078	7430.183105
2917.264648	7309.365234
2916.449219	7409.303223
2915.632813	7481.622559
2914.817383	7449.725586
2914.000977	7454.606445
2913.185547	7404.343750
2912.369141	7341.845215
2911.552734	7466.175293
2910.736328	7363.882813
2909.919922	7390.202637
2909.102539	7422.634766
2908.286133	7286.735840
2907.468750	7585.381836
2906.651367	7581.052246
2905.833984	7484.958984
2905.016602	7514.288574
2904.199219	7283.694824
2903.381836	7309.990723
2902.563477	7351.561523
2901.746094	7527.594238
2900.927734	7419.381836
2900.109375	7421.194336
2899.291016	7410.787109
2898.472656	7293.485352
2897.654297	7420.519531
2896.834961	7498.659668
2896.015625	7476.034668
2895.197266	7340.486328
2894.377930	7500.994629
2893.558594	7518.044922
2892.739258	7452.722168
2891.918945	7344.718750
2891.099609	7434.976563
2890.279297	7458.123535
2889.459961	7499.554199
2888.639648	7248.354492
2887.819336	7472.660156
2886.999023	7590.243652
2886.177734	7549.366211
2885.357422	7672.988770
2884.536133	7488.970703
2883.715820	7429.859863
2882.894531	7452.970703
2882.073242	7357.357422
2881.251953	7480.907227
2880.429688	7604.415527
2879.608398	7435.804688
2878.786133	7595.782227
2877.964844	7594.508789
2877.142578	7480.720703
2876.320313	7622.366699
2875.498047	7499.491699
2874.674805	7464.800293
2873.852539	7664.116211
2873.029297	7641.562500
2872.207031	7561.295898
2871.383789	7581.289551
2870.560547	7397.806152
2869.737305	7581.783203
2868.913086	7440.862305
2868.089844	7579.240234
2867.266602	7550.655273
2866.442383	7549.388672
2865.618164	7721.049805
2864.793945	7616.622070
2863.969727	7672.967285
2863.145508	7438.194336
2862.320313	7579.439941
2861.496094	7744.887695
2860.670898	7452.635742
2859.845703	7463.505859
2859.020508	7698.573730
2858.195313	7706.369141
2857.370117	7638.444336
2856.544922	7688.642090
2855.718750	7596.520508
2854.892578	7401.504883
2854.067383	7715.038574
2853.241211	7577.565430
2852.415039	7549.062500
2851.587891	7487.291992
2850.761719	7516.281738
2849.934570	7505.947754
2849.108398	7519.805664
2848.281250	7612.260742
2847.454102	7607.959961
2846.626953	7709.435059
2845.799805	7572.167969
2844.971680	7555.791016
2844.144531	7627.016602
2843.316406	7649.896484
2842.488281	7687.866699
2841.660156	7650.346680
2840.832031	7582.653320
2840.003906	7584.397949
2839.175781	7649.510742
2838.346680	7609.004395
2837.518555	7541.362305
2836.689453	7564.223633
2835.860352	7620.248535
2835.031250	7646.103516
2834.202148	7548.354492
2833.372070	7580.240723
2832.542969	7572.939941
2831.712891	7580.707031
2830.882813	7618.595703
2830.052734	7427.560547
2829.222656	7709.391602
2828.392578	7674.975586
2827.562500	7661.644043
2826.731445	7687.446289
2825.901367	7631.984375
2825.070313	7657.782227
2824.239258	7821.959961
2823.408203	7784.549805
2822.576172	7683.996094
2821.745117	7574.455078
2820.914063	7642.329590
2820.082031	7574.915039
2819.250000	7624.733887
2818.417969	7614.437500
2817.585938	7453.923828
2816.753906	7656.935547
2815.921875	7688.686035
2815.088867	7549.260254
2814.255859	7599.031738
2813.423828	7633.776367
2812.590820	7677.513184
2811.757813	7538.182617
2810.923828	7485.908691
2810.090820	7664.641113
2809.256836	7576.371094
2808.423828	7527.115234
2807.589844	7744.728516
2806.755859	7524.583496
2805.921875	7595.253906
2805.087891	7590.979492
2804.252930	7676.596191
2803.418945	7600.409180
2802.583984	7656.041992
2801.749023	7687.696777
2800.914063	7689.397949
2800.079102	7670.141113
2799.244141	7704.770508
2798.409180	7538.870117
2797.573242	7675.247070
2796.737305	7554.283691
2795.902344	7708.560059
2795.066406	7668.382324
2794.230469	7469.732910
2793.393555	7617.965332
2792.557617	7589.779297
2791.720703	7445.041016
2790.884766	7608.142578
2790.047852	7618.813477
2789.210938	7713.123535
2788.374023	7753.639648
2787.537109	7758.307129
2786.699219	7607.712891
2785.862305	7728.827637
2785.024414	7590.228027
2784.186523	7687.430176
2783.348633	7527.997070
2782.510742	7690.808105
2781.672852	7677.582520
2780.833984	7625.591309
2779.996094	7418.567383
2779.157227	7542.529785
2778.318359	7577.028320
2777.479492	7671.120117
2776.640625	7637.050781
2775.801758	7647.681641
2774.961914	7652.350586
2774.123047	7645.105469
2773.283203	7652.750977
2772.443359	7443.056152
2771.603516	7745.427734
2770.763672	7583.407227
2769.923828	7695.206543
2769.083008	7470.769043
2768.243164	7505.207031
2767.402344	7634.807617
2766.561523	7672.179688
2765.720703	7498.440430
2764.879883	7693.375977
2764.039063	7810.967773
2763.197266	7726.443359
2762.355469	7793.479004
2761.514648	7649.571777
2760.672852	7689.865234
2759.831055	7733.114746
2758.989258	7648.673340
2758.146484	7685.977539
2757.304688	7773.728027
2756.461914	7692.289551
2755.619141	7652.418945
2754.777344	7665.962402
2753.933594	7608.312012
2753.090820	7734.554688
2752.248047	7768.833008
2751.404297	7696.370117
2750.561523	7754.356445
2749.717773	7836.032715
2748.874023	7733.961914
2748.030273	7682.291992
2747.186523	7876.501953
2746.341797	7777.437012
2745.498047	7675.444336
2744.653320	7836.988770
2743.808594	7735.019531
2742.963867	7875.780762
2742.119141	7738.328613
2741.274414	7787.321289
2740.429688	7901.377930
2739.583984	7799.482910
2738.739258	7857.311035
2737.893555	7625.361816
2737.047852	7833.966309
2736.202148	7767.618652
2735.355469	7828.367676
2734.509766	7720.676758
2733.663086	7601.205078
2732.817383	7927.785156
2731.970703	7846.710449
2731.124023	7827.669922
2730.277344	7817.492188
2729.429688	7827.979492
2728.583008	7879.780273
2727.735352	7972.873535
2726.888672	7859.418945
2726.041016	7899.388184
2725.193359	7898.054688
2724.345703	7761.079590
2723.497070	7706.700684
2722.649414	7835.100098
2721.800781	7683.467773
2720.952148	7879.602539
2720.104492	7981.390625
2719.255859	7868.104492
2718.406250	8005.202637
2717.557617	7874.281250
2716.708008	7908.282715
2715.859375	7856.903320
2715.009766	7802.597168
2714.160156	7833.649902
2713.310547	7705.809082
2712.460938	7942.791016
2711.610352	7964.979492
2710.760742	7869.529297
2709.910156	8015.213867
2709.059570	7843.352051
2708.209961	7921.387695
2707.358398	7849.518555
2706.507813	7909.896484
2705.657227	7861.555176
2704.805664	7921.910156
2703.955078	7888.266602
2703.103516	7822.334473
2702.251953	7944.316895
2701.400391	7904.814941
2700.547852	7853.586914
2699.696289	7899.208984
2698.843750	8170.720215
2697.992188	7796.805176
2697.139648	7904.002441
2696.287109	7958.380859
2695.433594	8042.059082
2694.581055	8020.180176
2693.728516	7919.175293
2692.875000	7920.766602
2692.021484	7928.216797
2691.167969	7906.370605
2690.314453	7673.652832
2689.460938	7830.487793
2688.607422	7764.750000
2687.752930	7798.565430
2686.899414	7756.270020
2686.044922	7898.352051
2685.190430	8104.755371
2684.335938	7922.009277
2683.481445	8055.215332
2682.625977	8012.911133
2681.771484	7891.674316
2680.916016	7893.263184
2680.060547	7921.157227
2679.205078	7913.972168
2678.349609	7868.803711
2677.494141	8045.681152
2676.637695	7901.192871
2675.782227	7818.083008
2674.925781	7875.159668
2674.069336	7984.767090
2673.212891	8056.390137
2672.356445	8008.331055
2671.500000	7904.846191
2670.642578	8034.795898
2669.786133	7945.925781
2668.928711	7912.499023
2668.071289	8176.517578
2667.213867	7863.172363
2666.356445	7925.971680
2665.498047	7971.262695
2664.640625	8156.412109
2663.782227	8000.612793
2662.923828	8037.128418
2662.065430	8012.466797
2661.207031	7932.484375
2660.348633	8012.665527
2659.490234	7973.464355
2658.630859	7975.024902
2657.771484	7956.213867
2656.913086	7876.306641
2656.053711	8084.429199
2655.193359	7908.542480
2654.333984	7793.786133
2653.474609	7812.819336
2652.614258	7924.874512
2651.753906	8048.518066
2650.893555	7916.377441
2650.033203	7920.848145
2649.172852	7858.497559
2648.312500	7845.547363
2647.451172	7911.014160
2646.590820	7921.288574
2645.729492	7946.075195
2644.868164	7872.161133
2644.006836	7876.631348
2643.145508	7924.625977
2642.283203	7937.789551
2641.421875	7974.153809
2640.559570	7946.700195
2639.697266	8041.045410
2638.834961	8001.992188
2637.972656	8064.408691
2637.110352	7889.144531
2636.248047	7966.047852
2635.384766	7880.675293
2634.521484	7951.759766
2633.658203	8060.471680
2632.794922	8128.605469
2631.931641	7988.250488
2631.068359	8062.162109
2630.204102	8063.689453
2629.340820	7767.147461
2628.476563	7974.153809
2627.612305	8100.088379
2626.748047	8243.334961
2625.883789	7886.231934
2625.018555	8069.945313
2624.154297	8007.866699
2623.289063	8026.741699
2622.423828	7875.103027
2621.558594	7992.234863
2620.693359	7938.877441
2619.828125	8029.961914
2618.961914	8034.375488
2618.096680	7897.300293
2617.230469	7991.231445
2616.364258	8102.449707
2615.498047	8089.530762
2614.631836	7923.682617
2613.765625	7936.763184
2612.898438	8120.027832
2612.032227	8098.461426
2611.165039	8042.298828
2610.297852	8020.752441
2609.430664	8068.395020
2608.563477	7977.680176
2607.695313	8048.366699
2606.828125	8029.713867
2605.959961	8097.485840
2605.091797	8058.669434
2604.223633	8189.765625
2603.355469	8116.395996
2602.487305	8077.594727
2601.618164	8027.293945
2600.750000	8060.463379
2599.880859	8027.445313
2599.011719	8103.753906
2598.142578	8036.224121
2597.273438	8132.635254
2596.403320	8183.008789
2595.534180	8109.749512
2594.664063	8048.012207
2593.793945	8233.442383
2592.923828	8243.537109
2592.053711	8213.408203
2591.183594	8082.757813
2590.313477	8026.819336
2589.442383	8097.239746
2588.571289	8121.702148
2587.700195	8304.027344
2586.829102	8133.291992
2585.958008	8269.641602
2585.086914	8159.217285
2584.215820	8152.094238
2583.343750	8202.332031
2582.471680	8157.925781
2581.599609	8093.465820
2580.727539	8026.161133
2579.855469	8176.694824
2578.982422	8138.053711
2578.110352	8282.786133
2577.237305	8201.171875
2576.364258	8171.136719
2575.491211	8092.431641
2574.618164	8302.923828
2573.745117	8152.657227
2572.872070	8125.512207
2571.998047	8212.840820
2571.124023	8105.582031
2570.250000	8230.072266
2569.375977	8231.533203
2568.501953	8258.729492
2567.627930	8142.958008
2566.752930	8121.562012
2565.878906	8163.054199
2565.003906	8178.812012
2564.128906	8060.273926
2563.253906	8238.877930
2562.377930	8311.740234
2561.502930	8350.306641
2560.626953	8154.726074
2559.751953	8241.837891
2558.875977	8180.494629
2558.000000	8082.072266
2557.123047	8149.177734
2556.247070	8187.731445
2555.371094	8189.190430
2554.494141	8241.983398
2553.617188	8251.986328
2552.740234	8108.035156
2551.863281	8055.347656
2550.986328	8327.572266
2550.108398	8385.994141
2549.231445	8168.043457
2548.353516	8294.835938
2547.475586	8299.119141
2546.597656	8215.127930
2545.719727	8353.235352
2544.841797	8237.950195
2543.962891	8287.777344
2543.084961	8135.549805
2542.206055	8364.618164
2541.327148	8320.524414
2540.448242	8319.107422
2539.569336	8181.195801
2538.689453	8225.292969
2537.810547	8448.464844
2536.930664	8452.709961
2536.050781	8286.451172
2535.170898	8347.546875
2534.291016	8212.609375
2533.411133	8310.620117
2532.530273	8187.093262
2531.649414	8219.770508
2530.769531	8351.793945
2529.888672	8248.191406
2529.007813	8351.786133
2528.125977	8282.266602
2527.245117	8181.564941
2526.363281	8140.460938
2525.482422	8272.362305
2524.600586	8253.939453
2523.718750	8229.853516
2522.836914	8228.451172
2521.954102	8391.418945
2521.072266	8330.485352
2520.189453	8252.574219
2519.306641	8152.028809
2518.423828	8190.288086
2517.541016	8228.534180
2516.658203	8289.415039
2515.775391	8372.919922
2514.891602	8246.966797
2514.007813	8121.056641
2513.125000	8263.958984
2512.241211	8406.812500
2511.356445	8164.982422
2510.472656	8220.144531
2509.588867	8235.706055
2508.704102	8217.340820
2507.819336	8266.811523
2506.934570	8177.802734
2506.049805	8193.359375
2505.165039	8211.736328
2504.279297	8187.740723
2503.394531	8127.042969
2502.508789	8261.178711
2501.623047	8440.433594
2500.737305	8128.529297
2499.851563	8245.663086
2498.965820	8280.934570
2498.079102	8248.491211
2497.193359	8382.466797
2496.306641	8296.436523
2495.419922	8289.381836
2494.533203	8341.529297
2493.646484	8331.649414
2492.758789	8420.406250
2491.872070	8213.284180
2490.984375	8372.458008
2490.096680	8362.579102
2489.208984	8248.505859
2488.321289	8435.747070
2487.432617	8189.385742
2486.544922	8252.725586
2485.656250	8231.617188
2484.767578	8266.791016
2483.878906	8248.499023
2482.990234	8275.218750
2482.101563	8397.546875
2481.211914	8314.570313
2480.323242	8195.074219
2479.433594	8261.134766
2478.543945	8228.809570
2477.654297	8190.875488
2476.764648	8214.761719
2475.875000	8145.943848
2474.984375	8209.146484
2474.093750	8233.016602
2473.204102	8192.304688
2472.313477	8238.625000
2471.421875	8293.348633
2470.531250	8401.368164
2469.640625	8256.847656
2468.749023	8468.625000
2467.857422	8419.499023
2466.965820	8249.811523
2466.074219	8158.684082
2465.182617	8328.284180
2464.291016	8371.704102
2463.398438	8476.758789
2462.505859	8363.239258
2461.613281	8403.829102
2460.720703	8281.958008
2459.828125	8370.152344
2458.935547	8340.723633
2458.041992	8277.711914
2457.149414	8337.872070
2456.255859	8414.801758
2455.362305	8340.617188
2454.468750	8224.495117
2453.575195	8407.689453
2452.680664	8372.693359
2451.787109	8360.077148
2450.892578	8378.216797
2449.998047	8225.850586
2449.103516	8431.242188
2448.208984	8301.271484
2447.313477	8313.820313
2446.418945	8220.224609
2445.523438	8517.633789
2444.627930	8410.073242
2443.732422	8377.925781
2442.836914	8309.502930
2441.941406	8581.575195
2441.044922	8535.461914
2440.149414	8531.211914
2439.252930	8340.078125
2438.356445	8397.216797
2437.459961	8267.514648
2436.563477	8399.918945
2435.666016	8504.403320
2434.769531	8455.569336
2433.872070	8473.627930
2432.974609	8488.893555
2432.077148	8487.440430
2431.179688	8399.651367
2430.281250	8245.063477
2429.383789	8324.389648
2428.485352	8651.429688
2427.586914	8544.189453
2426.688477	8406.376953
2425.790039	8452.234375
2424.891602	8614.907227
2423.992188	8593.963867
2423.093750	8292.171875
2422.194336	8446.446289
2421.294922	8408.862305
2420.395508	8407.422852
2419.496094	8425.434570
2418.595703	8457.332031
2417.696289	8503.107422
2416.795898	8521.091797
2415.895508	8275.262695
2414.995117	8495.960938
2414.094727	8519.489258
2413.194336	8581.867188
2412.292969	8533.220703
2411.391602	8373.609375
2410.491211	8358.303711
2409.589844	8304.172852
2408.687500	8485.776367
2407.786133	8573.046875
2406.884766	8602.072266
2405.982422	8528.533203
2405.080078	8549.241211
2404.177734	8328.886719
2403.275391	8698.676758
2402.373047	8481.140625
2401.470703	8366.144531
2400.567383	8583.449219
2399.664063	8545.989258
2398.760742	8486.397461
2397.857422	8446.198242
2396.954102	8273.199219
2396.050781	8581.626953
2395.146484	8433.556641
2394.243164	8479.124023
2393.338867	8480.435547
2392.434570	8548.095703
2391.530273	8460.942383
2390.625000	8462.254883
2389.720703	8446.987305
2388.815430	8525.656250
2387.910156	8488.285156
2387.004883	8489.590820
2386.099609	8659.333008
2385.194336	8431.461914
2384.289063	8590.114258
2383.382813	8569.321289
2382.476563	8595.444336
2381.570313	8376.016602
2380.664063	8498.708984
2379.757813	8351.079102
2378.851563	8413.067383
2377.944336	8395.082031
2377.037109	8611.407227
2376.130859	8309.518555
2375.223633	8354.937500
2374.315430	8430.646484
2373.408203	8343.805664
2372.500977	8367.160156
2371.592773	8525.438477
2370.684570	8499.195313
2369.776367	8357.345703
2368.868164	8289.856445
2367.959961	8464.548828
2367.050781	8253.994141
2366.142578	8197.559570
2365.233398	8460.188477
2364.324219	8486.235352
2363.415039	8490.276367
2362.504883	8571.287109
2361.595703	8487.360352
2360.685547	8521.626953
2359.776367	8314.096680
2358.866211	8417.057617
2357.956055	8558.435547
2357.045898	8416.912109
2356.134766	8234.251953
2355.224609	8565.005859
2354.313477	8239.656250
2353.402344	8408.384766
2352.491211	8456.327148
2351.580078	8572.836914
2350.668945	8516.506836
2349.756836	8462.938477
2348.844727	8442.290039
2347.933594	8427.132813
2347.021484	8387.310547
2346.108398	8588.664063
2345.196289	8466.627930
2344.284180	8404.902344
2343.371094	8488.368164
2342.458008	8308.900391
2341.544922	8466.283203
2340.631836	8434.713867
2339.718750	8564.648438
2338.805664	8409.918945
2337.891602	8424.890625
2336.977539	8587.587891
2336.063477	8545.082031
2335.149414	8398.666016
2334.235352	8350.737305
2333.321289	8420.382813
2332.406250	8438.068359
2331.491211	8545.934570
2330.576172	8566.324219
2329.661133	8592.170898
2328.746094	8440.458008
2327.831055	8291.528320
2326.915039	8467.590820
2326.000000	8395.150391
2325.083984	8341.842773
2324.167969	8594.221680
2323.251953	8360.801758
2322.334961	8422.112305
2321.418945	8461.580078
2320.501953	8574.670898
2319.584961	8387.769531
2318.667969	8427.221680
2317.750977	8491.192383
2316.833984	8514.259766
2315.916016	8520.969727
2314.999023	8478.634766
2314.081055	8452.659180
2313.163086	8541.081055
2312.245117	8629.472656
2311.327148	8562.643555
2310.408203	8446.838867
2309.490234	8551.530273
2308.571289	8506.518555
2307.652344	8374.457031
2306.733398	8533.511719
2305.814453	8513.002930
2304.894531	8565.923828
2303.975586	8575.324219
2303.055664	8500.450195
2302.135742	8662.061523
2301.215820	8464.912109
2300.295898	8634.625000
2299.375000	8603.254883
2298.455078	8593.625000
2297.534180	8698.052734
2296.613281	8577.087891
2295.692383	8708.627930
2294.771484	8555.132813
2293.850586	8648.638672
2292.928711	8728.545898
2292.007813	8667.360352
2291.085938	8619.756836
2290.164063	8620.983398
2289.242188	8679.148438
2288.319336	8604.457031
2287.397461	8697.839844
2286.474609	8582.520508
2285.551758	8543.108398
2284.628906	8574.143555
2283.706055	8651.214844
2282.783203	8763.463867
2281.859375	8715.922852
2280.936523	8736.077148
2280.012695	8639.834961
2279.088867	8611.283203
2278.165039	8723.440430
2277.241211	8665.125000
2276.316406	8647.401367
2275.391602	8789.241211
2274.467773	8725.535156
2273.542969	8861.906250
2272.618164	8722.525391
2271.692383	8729.127930
2270.767578	8768.153320
2269.841797	8753.131836
2268.916992	8848.862305
2267.991211	8717.704102
2267.065430	8689.198242
2266.138672	8687.698242
2265.212891	8737.485352
2264.286133	8962.675781
2263.360352	8680.502930
2262.433594	8811.200195
2261.506836	8917.574219
2260.579102	8951.095703
2259.652344	8631.368164
2258.725586	8813.205078
2257.797852	8811.684570
2256.870117	8858.673828
2255.942383	8668.522461
2255.014648	8815.203125
2254.085938	8727.483398
2253.158203	8801.386719
2252.229492	8772.939453
2251.300781	8795.654297
2250.372070	8780.676758
2249.443359	8835.678711
2248.514648	8748.043945
2247.584961	8711.557617
2246.655273	8785.372070
2245.725586	8794.612305
2244.795898	8838.806641
2243.866211	8718.982422
2242.936523	8763.173828
2242.005859	8651.467773
2241.076172	8617.726563
2240.145508	8817.740234
2239.214844	8759.805664
2238.284180	8726.062500
2237.352539	8695.016602
2236.421875	8680.089844
2235.490234	8815.492188
2234.558594	8771.026367
2233.626953	8659.489258
2232.695313	8676.773438
2231.763672	8833.541992
2230.831055	8877.610352
2229.899414	8755.403320
2228.966797	8952.293945
2228.034180	8840.838867
2227.101563	8745.502930
2226.167969	8596.604492
2225.235352	8683.534180
2224.301758	8824.009766
2223.369141	8624.286133
2222.435547	8662.962891
2221.500977	8685.561523
2220.567383	8710.829102
2219.633789	8677.204102
2218.699219	8737.252930
2217.764648	8559.153320
2216.830078	8704.803711
2215.895508	8617.708984
2214.960938	8795.388672
2214.025391	8748.414063
2213.090820	8754.919922
2212.155273	8633.128906
2211.219727	8682.410156
2210.284180	8745.032227
2209.347656	8620.633789
2208.412109	8581.749023
2207.475586	8711.117188
2206.540039	8792.380859
2205.603516	8702.763672
2204.666992	8725.279297
2203.729492	8713.093750
2202.792969	8706.249023
2201.855469	8787.441406
2200.917969	8833.930664
2199.980469	8699.061523
2199.042969	8521.578125
2198.105469	8661.393555
2197.167969	8694.543945
2196.229492	8695.703125
2195.291016	8579.625000
2194.352539	8682.036133
2193.414063	8550.017578
2192.475586	8599.135742
2191.536133	8768.054688
2190.597656	8593.495117
2189.658203	8687.828125
2188.718750	8774.144531
2187.779297	8636.923828
2186.839844	8667.351563
2185.899414	8655.210938
2184.958984	8762.747070
2184.019531	8692.095703
2183.079102	8762.369141
2182.138672	8728.954102
2181.197266	8746.044922
2180.256836	8720.615234
2179.315430	8732.386719
2178.374023	8714.936523
2177.432617	8726.704102
2176.491211	8727.846680
2175.549805	8747.572266
2174.608398	8791.179688
2173.666016	8651.654297
2172.723633	8862.427734
2171.781250	8630.083984
2170.838867	8803.652344
2169.896484	8892.295898
2168.953125	8803.251953
2168.010742	8793.771484
2167.067383	8813.452148
2166.124023	8695.314453
2165.180664	8733.552734
2164.237305	8883.046875
2163.292969	8870.911133
2162.348633	8736.954102
2161.405273	8751.326172
2160.460938	8882.180664
2159.516602	8819.758789
2158.571289	8760.004883
2157.626953	8766.423828
2156.681641	8883.955078
2155.736328	8895.639648
2154.791016	8827.978516
2153.845703	8844.956055
2152.900391	8856.639648
2151.954102	8841.886719
2151.008789	8824.495117
2150.062500	8857.314453
2149.116211	8895.406250
2148.169922	9052.350586
2147.222656	8776.113281
2146.276367	8898.696289
2145.329102	8786.267578
2144.381836	8900.885742
2143.434570	8748.907227
2142.487305	8810.717773
2141.540039	9028.164063
2140.591797	8944.824219
2139.644531	8858.875977
2138.696289	8862.611328
2137.748047	8979.711914
2136.799805	8827.901367
2135.850586	8852.723633
2134.902344	8943.413086
2133.953125	9026.166992
2133.003906	8874.452148
2132.054688	8912.416016
2131.105469	8813.438477
2130.156250	9048.857422
2129.206055	9023.593750
2128.256836	9066.767578
2127.306641	8991.512695
2126.356445	9113.605469
2125.406250	8980.497070
2124.455078	8955.265625
2123.504883	8980.004883
2122.553711	9178.257813
2121.602539	8966.369141
2120.651367	9054.169922
2119.700195	9052.595703
2118.748047	8938.048828
2117.796875	8994.285156
2116.844727	8995.348633
2115.892578	9051.554688
2114.940430	8947.587891
2113.988281	9072.032227
2113.035156	8973.346680
2112.083008	9026.892578
2111.129883	8902.011719
2110.176758	9013.259766
2109.223633	8820.233398
2108.270508	8989.147461
2107.316406	8914.172852
2106.363281	9088.252930
2105.409180	9070.947266
2104.455078	9071.989258
2103.500977	9020.631836
2102.546875	8971.910156
2101.591797	9075.112305
2100.637695	9063.059570
2099.682617	9192.390625
2098.727539	9080.847656
2097.772461	9097.587891
2096.817383	8996.566406
2095.861328	9042.094727
2094.906250	8820.786133
2093.950195	9091.256836
2092.994141	9092.289063
2092.038086	8983.510742
2091.081055	8966.262695
2090.125000	9001.291992
2089.167969	9036.309570
2088.210938	9071.314453
2087.253906	8952.183594
2086.296875	9130.838867
2085.339844	9118.803711
2084.381836	9093.717773
2083.424805	8961.612305
2082.466797	8975.711914
2081.508789	8942.833984
2080.550781	8925.622070
2079.591797	8955.371094
2078.633789	8914.688477
2077.674805	9033.090820
2076.715820	8804.685547
2075.756836	8907.423828
2074.797852	8984.062500
2073.837891	8883.473633
2072.878906	9056.490234
2071.918945	9065.332031
2070.958984	8977.802734
2069.999023	8984.050781
2069.039063	9065.800781
2068.078125	8967.903320
2067.118164	8994.970703
2066.157227	9003.811523
2065.196289	8851.337891
2064.235352	9000.672852
2063.274414	9053.723633
2062.312500	8849.310547
2061.351563	8806.167969
2060.389648	8867.021484
2059.427734	9114.987305
2058.465820	8832.746094
2057.503906	8901.356445
2056.541016	8907.597656
2055.578125	8942.406250
2054.616211	8969.412109
2053.653320	8905.534180
2052.689453	8906.577148
2051.726563	8793.418945
2050.763672	8973.536133
2049.799805	8922.673828
2048.835938	8918.523438
2047.872070	8929.935547
2046.908203	9003.581055
2045.943359	8916.449219
2044.979492	8982.292969
2044.014648	8936.664063
2043.049805	9012.846680
2042.084961	8902.455078
2041.120117	8797.282227
2040.155273	8920.068359
2039.189453	8946.996094
2038.223633	9015.341797
2037.257813	8819.617188
2036.291992	9051.017578
2035.326172	8744.081055
2034.360352	8750.316406
2033.393555	8932.456055
2032.426758	8801.576172
2031.459961	9102.597656
2030.493164	8907.094727
2029.526367	8928.804688
2028.558594	8839.369141
2027.591797	8886.923828
2026.624023	9004.222656
2025.656250	8987.150391
2024.688477	9044.985352
2023.719727	8857.476563
2022.751953	9044.408203
2021.783203	9045.409180
2020.814453	9098.030273
2019.845703	9039.668945
2018.876953	8906.504883
2017.908203	9005.554688
2016.938477	8980.768555
2015.968750	9105.557617
2014.999023	8840.980469
2014.029297	9066.286133
2013.059570	9113.671875
2012.089844	8975.500977
2011.119141	8922.402344
2010.148438	8887.354492
2009.177734	9102.151367
2008.207031	9123.736328
2007.236328	8962.510742
2006.264648	8986.685547
2005.293945	8843.555664
2004.322266	8929.503906
2003.350586	9059.160156
2002.378906	9021.561523
2001.407227	9076.568359
2000.434570	8925.831055
1999.461914	9122.245117
1998.489258	8956.127930
1997.516602	9036.807617
1996.543945	9055.785156
1995.571289	9064.478516
1994.597656	8877.935547
1993.625000	9061.307617
1992.651367	9188.120117
1991.677734	9178.809570
1990.703125	9151.533203
1989.729492	9131.965820
1988.754883	9104.707031
1987.781250	9205.742188
1986.806641	9206.696289
1985.831055	9069.150391
1984.856445	9165.008789
1983.881836	9178.788086
1982.906250	9187.435547
1981.930664	9185.827148
1980.955078	9107.342773
1979.979492	9172.363281
1979.003906	9147.702148
1978.027344	9056.458984
1977.050781	9124.013672
1976.075195	9078.890625
1975.098633	9115.699219
1974.121094	9116.662109
1973.144531	9028.060547
1972.166992	9087.884766
1971.190430	9285.823242
1970.212891	9294.427734
1969.235352	9241.655273
1968.256836	9222.139648
1967.279297	9110.604492
1966.300781	9106.452148
1965.322266	9109.967773
1964.343750	9220.789063
1963.365234	9137.429688
1962.386719	9056.653320
1961.407227	9149.549805
1960.428711	9275.604492
1959.449219	9281.637695
1958.469727	9139.636719
1957.490234	9260.521484
1956.509766	9215.525391
1955.530273	9280.234375
1954.549805	9367.874023
1953.569336	9376.431641
1952.588867	9211.615234
1951.608398	9314.514648
1950.626953	9425.024414
1949.646484	9166.000000
1948.665039	9243.374023
1947.683594	9022.682617
1946.702148	9044.022461
1945.719727	8976.228516
1944.738281	9170.696289
1943.755859	9051.993164
1942.773438	9190.386719
1941.791016	9321.096680
1940.808594	9151.543945
1939.826172	9147.394531
1938.842773	9117.813477
1937.859375	9055.184570
1936.876953	9073.935547
1935.892578	9179.107422
1934.909180	9197.829102
1933.925781	9020.879883
1932.941406	9227.629883
1931.957031	9132.023438
1930.972656	9092.324219
1929.988281	9171.986328
1929.003906	8969.806641
1928.018555	9204.305664
1927.034180	9167.158203
1926.048828	9157.936523
1925.063477	9176.625977
1924.078125	9106.525391
1923.091797	9023.768555
1922.106445	8958.791016
1921.120117	9142.294922
1920.133789	8973.388672
1919.147461	9154.291016
1918.161133	9114.673828
1917.173828	8907.858398
1916.187500	8769.507813
1915.200195	9112.405273
1914.212891	9047.500000
1913.225586	9063.633789
1912.237305	8998.758789
1911.250000	9073.103516
1910.261719	9071.509766
1909.273438	9211.593750
1908.285156	9108.794922
1907.296875	8973.153320
1906.307617	9148.581055
1905.319336	9053.430664
1904.330078	9079.644531
1903.340820	9090.685547
1902.351563	9048.658203
1901.362305	9087.491211
1900.372070	8962.121094
1899.382813	9107.026367
1898.392578	9077.649414
1897.402344	9068.479492
1896.412109	9036.595703
1895.420898	9019.864258
1894.430664	8993.045898
1893.439453	8951.098633
1892.448242	8954.569336
1891.457031	9028.654297
1890.465820	8974.114258
1889.473633	9022.958008
1888.482422	9013.809570
1887.490234	9004.663086
1886.498047	9008.119141
1885.505859	9014.092773
1884.512695	9143.488281
1883.520508	9083.956055
1882.527344	8880.918945
1881.534180	8967.470703
1880.541016	9036.372070
1879.547852	9097.698242
1878.554688	9088.548828
1877.560547	8918.392578
1876.566406	8894.185547
1875.572266	9000.760742
1874.578125	9112.326172
1873.583984	8897.032227
1872.589844	9099.064453
1871.594727	9105.001953
1870.599609	9063.197266
1869.604492	9184.700195
1868.609375	9127.824219
1867.613281	9121.194336
1866.618164	9124.610352
1865.622070	9060.242188
1864.625977	9118.887695
1863.629883	9215.155273
1862.633789	9160.840820
1861.636719	9003.688477
1860.640625	9247.911133
1859.643555	9065.720703
1858.646484	9136.836914
1857.649414	9014.895508
1856.651367	9106.046875
1855.654297	9039.286133
1854.656250	9208.074219
1853.658203	9218.977539
1852.660156	9042.023438
1851.662109	9220.738281
1850.664063	9156.517578
1849.665039	9222.496094
1848.666016	9118.249023
1847.666992	9334.361328
1846.667969	9370.247070
1845.668945	9246.015625
1844.668945	9189.359375
1843.669922	9177.737305
1842.669922	9158.617188
1841.669922	8962.012695
1840.668945	9132.893555
1839.668945	9268.727539
1838.667969	9164.652344
1837.667969	9285.443359
1836.666992	9201.383789
1835.665039	9202.257813
1834.664063	9395.384766
1833.663086	9318.836914
1832.661133	9324.681641
1831.659180	9163.327148
1830.657227	9239.056641
1829.655273	9229.943359
1828.652344	9250.761719
1827.650391	9121.951172
1826.647461	9170.207031
1825.644531	9280.766602
1824.641602	9306.544922
1823.638672	9140.434570
1822.634766	9061.585938
1821.631836	9144.682617
1820.627930	9155.521484
1819.624023	9173.827148
1818.619141	9149.800781
1817.615234	9230.333008
1816.610352	9303.369141
1815.606445	9179.793945
1814.601563	9292.621094
1813.596680	9243.716797
1812.590820	9271.930664
1811.585938	9185.747070
1810.580078	9271.142578
1809.574219	9249.619141
1808.568359	9200.764648
1807.562500	9211.564453
1806.556641	9150.309570
1805.549805	9320.091797
1804.542969	9171.914063
1803.536133	9021.304688
1802.529297	9153.778320
1801.522461	9338.332031
1800.514648	9247.335938
1799.507813	9116.668945
1798.500000	9120.020508
1797.492188	9210.188477
1796.484375	9196.161133
1795.475586	9018.480469
1794.467773	9116.055664
1793.458984	9268.127930
1792.450195	9097.963867
1791.441406	8962.548828
1790.431641	8998.126953
1789.422852	9051.031250
1788.413086	9002.375977
1787.403320	9008.212891
1786.393555	9095.746094
1785.383789	8891.166016
1784.374023	8936.615234
1783.363281	9189.897461
1782.352539	9020.043945
1781.341797	8936.823242
1780.331055	8806.642578
1779.320313	9010.314453
1778.308594	8902.416016
1777.297852	9091.166992
1776.286133	9143.928711
1775.274414	9023.708008
1774.261719	9036.934570
1773.250000	8911.834961
1772.237305	9065.841797
1771.225586	8770.410156
1770.212891	8988.573242
1769.199219	9024.006836
1768.186523	8844.725586
1767.173828	8853.030273
1766.160156	9026.618164
1765.146484	8960.890625
1764.132813	8860.661133
1763.119141	8851.695313
1762.104492	9005.437500
1761.090820	8814.055664
1760.076172	8987.463867
1759.061523	8993.264648
1758.046875	8878.352539
1757.031250	9172.344727
1756.016602	8976.174805
1755.000977	9011.518555
1753.985352	8869.603516
1752.969727	8838.498047
1751.954102	8942.749023
1750.937500	8852.589844
1749.920898	8851.022461
1748.905273	8842.076172
1747.888672	9000.351563
1746.871094	8897.952148
1745.854492	9002.080078
1744.836914	8995.569336
1743.820313	8930.083984
1742.802734	8965.355469
1741.785156	8944.115234
1740.766602	8944.986328
1739.749023	8899.200195
1738.730469	8983.554688
1737.711914	8866.588867
1736.693359	9080.998047
1735.674805	8775.106445
1734.655273	8906.037109
1733.636719	9036.921875
1732.617188	9069.655273
1731.597656	9009.196289
1730.578125	8735.458984
1729.558594	8863.827148
1728.538086	9009.306641
1727.517578	9042.014648
1726.497070	9045.311523
1725.476563	8967.771484
1724.456055	8897.605469
1723.435547	8864.195313
1722.414063	8901.794922
1721.392578	9029.949219
1720.371094	8827.663086
1719.349609	8904.399414
1718.327148	8971.321289
1717.305664	8937.930664
1716.283203	8982.812500
1715.260742	8939.650391
1714.238281	8754.706055
1713.215820	9097.803711
1712.192383	9005.764648
1711.168945	8896.654297
1710.146484	8934.164063
1709.123047	8998.528320
1708.098633	8989.604492
1707.075195	9107.653320
1706.050781	8991.295898
1705.026367	9104.419922
1704.001953	8917.331055
1702.977539	9296.387695
1701.953125	9177.637695
1700.927734	9078.442383
1699.903320	8957.333984
1698.877930	9111.792969
1697.852539	9149.179688
1696.826172	9093.931641
1695.800781	9131.308594
1694.774414	9239.330078
1693.748047	9040.365234
1692.721680	9072.858398
1691.695313	8978.708008
1690.668945	9149.983398
1689.641602	9155.661133
1688.614258	8995.828125
1687.586914	9208.377930
1686.559570	9116.718750
1685.532227	9107.800781
1684.503906	9164.554688
1683.475586	9126.449219
1682.447266	9000.829102
1681.418945	8965.196289
1680.390625	9036.516602
1679.362305	9000.889648
1678.333008	9016.296875
1677.303711	9167.732422
1676.274414	9003.376953
1675.245117	8999.347656
1674.214844	9053.588867
1673.185547	9289.869141
1672.155273	9023.671875
1671.125000	9019.640625
1670.094727	8894.302734
1669.063477	9006.729492
1668.033203	9201.576172
1667.001953	9056.873047
1665.970703	9103.750000
1664.939453	9039.106445
1663.908203	9112.629883
1662.875977	9067.391602
1661.844727	8993.096680
1660.812500	9020.564453
1659.780273	9144.895508
1658.748047	9116.631836
1657.714844	9013.328125
1656.682617	8989.939453
1655.649414	8998.019531
1654.616211	9010.936523
1653.583008	9084.330078
1652.548828	8969.027344
1651.515625	8955.338867
1650.481445	9019.029297
1649.447266	8836.108398
1648.413086	8998.898438
1647.378906	8852.295898
1646.343750	8940.121094
1645.308594	9006.171875
1644.274414	8987.660156
1643.239258	8957.080078
1642.203125	8931.338867
1641.167969	8910.435547
1640.131836	9017.463867
1639.095703	8926.567383
1638.059570	8891.198242
1637.023438	8937.861328
1635.987305	8953.153320
1634.950195	8794.808594
1633.913086	8894.507813
1632.876953	8663.910156
1631.838867	8951.593750
1630.801758	8887.343750
1629.764648	8873.712891
1628.726563	8819.134766
1627.688477	8877.775391
1626.650391	8914.722656
1625.612305	8850.534180
1624.573242	8978.946289
1623.534180	8909.956055
1622.496094	8747.140625
1621.457031	8755.205078
1620.416992	8748.833008
1619.377930	8800.184570
1618.337891	8926.061523
1617.298828	8849.939453
1616.258789	8769.035156
1615.217773	8731.420898
1614.177734	8717.848633
1613.136719	8754.734375
1612.096680	8846.853516
1611.055664	9022.997070
1610.014648	8800.475586
1608.972656	8748.488281
1607.931641	8790.134766
1606.889648	8709.368164
1605.847656	8851.784180
1604.805664	8943.768555
1603.763672	8978.152344
1602.720703	8638.400391
1601.678711	8634.460938
1600.635742	8903.822266
1599.592773	8693.699219
1598.549805	8653.803711
1597.505859	8800.815430
1596.462891	8669.878906
1595.418945	8776.116211
1594.375000	8731.443359
1593.331055	8751.433594
1592.286133	8690.022461
1591.242188	8882.345703
1590.197266	8722.815430
1589.152344	8879.172852
1588.107422	8906.293945
1587.062500	8763.586914
1586.016602	8893.546875
1584.971680	8731.764648
1583.925781	8751.719727
1582.879883	8790.788086
1581.833008	8832.231445
1580.787109	8763.753906
1579.740234	8927.016602
1578.693359	8848.993164
1577.646484	8830.696289
1576.599609	8793.304688
1575.552734	8703.410156
1574.504883	8811.642578
1573.457031	8798.135742
1572.409180	8806.106445
1571.361328	8713.886719
1570.313477	8919.822266
1569.264648	8899.151367
1568.215820	8835.573242
1567.166992	8798.238281
1566.118164	8992.092773
1565.069336	8799.857422
1564.019531	8926.934570
1562.969727	9051.583984
1561.920898	8766.558594
1560.870117	8853.092773
1559.820313	8846.748047
1558.770508	8987.982422
1557.719727	9038.732422
1556.668945	9084.704102
1555.618164	8838.040039
1554.567383	9007.716797
1553.515625	8903.844727
1552.464844	8980.716797
1551.413086	8960.090820
1550.361328	9017.910156
1549.309570	8819.049805
1548.256836	8960.033203
1547.204102	8818.268555
1546.152344	8944.950195
1545.099609	8881.605469
1544.045898	8851.523438
1542.993164	8956.764648
1541.939453	8919.558594
1540.886719	8903.723633
1539.833008	8904.501953
1538.779297	8796.158203
1537.724609	8858.621094
1536.670898	8982.716797
1535.616211	8928.948242
1534.561523	8884.679688
1533.506836	8885.458008
1532.452148	8798.558594
1531.396484	8773.290039
1530.340820	8830.939453
1529.285156	9033.038086
1528.229492	9000.636719
1527.173828	8894.852539
1526.118164	8805.674805
1525.061523	8898.764648
1524.004883	8835.647461
1522.948242	8789.113281
1521.891602	8647.977539
1520.833984	8781.232422
1519.777344	8661.429688
1518.719727	8853.738281
1517.662109	8729.237305
1516.603516	8782.028320
1515.545898	8747.373047
1514.487305	8868.652344
1513.429688	8789.115234
1512.371094	8813.517578
1511.311523	8769.435547
1510.252930	8730.090820
1509.193359	8775.732422
1508.134766	8849.675781
1507.075195	8701.799805
1506.014648	8660.134766
1504.955078	8656.222656
1503.895508	8744.282227
1502.834961	8580.025391
1501.774414	8448.831055
1500.713867	8668.868164
1499.652344	8492.929688
1498.591797	8743.508789
1497.530273	8534.640625
1496.468750	8615.542969
1495.407227	8703.480469
1494.345703	8551.235352
1493.283203	8627.382813
1492.220703	8395.184570
1491.159180	8499.569336
1490.095703	8676.850586
1489.033203	8658.826172
1487.970703	8323.304688
1486.907227	8566.362305
1485.843750	8541.313477
1484.780273	8469.261719
1483.716797	8500.643555
1482.652344	8539.062500
1481.588867	8598.612305
1480.524414	8646.395508
1479.459961	8553.250977
1478.394531	8488.316406
1477.330078	8510.267578
1476.264648	8417.197266
1475.200195	8457.927734
1474.133789	8580.766602
1473.068359	8480.694336
1472.002930	8465.096680
1470.936523	8465.920898
1469.870117	8572.256836
1468.803711	8507.419922
1467.737305	8470.733398
1466.670898	8473.897461
1465.603516	8474.717773
1464.536133	8557.527344
1463.468750	8476.355469
1462.401367	8542.742188
1461.333984	8494.379883
1460.265625	8518.602539
1459.197266	8467.920898
1458.128906	8695.725586
1457.060547	8731.596680
1455.992188	8580.315430
1454.922852	8611.515625
1453.854492	8549.167969
1452.785156	8360.592773
1451.714844	8391.814453
1450.645508	8722.177734
1449.575195	8510.304688
1448.505859	8471.393555
1447.435547	8423.151367
1446.365234	8519.724609
1445.293945	8459.816406
1444.223633	8563.351563
1443.152344	8578.149414
1442.081055	8655.954102
1441.009766	8486.395508
1439.938477	8571.186523
1438.866211	8467.012695
1437.793945	8507.466797
1436.721680	8634.176758
1435.649414	8502.072266
1434.577148	8638.060547
1433.503906	8638.835938
1432.431641	8516.121094
1431.358398	8717.260742
1430.285156	8454.825195
1429.210938	8525.494141
1428.137695	8465.750977
1427.063477	8552.685547
1425.989258	8641.916992
1424.915039	8640.360352
1423.840820	8506.185547
1422.765625	8669.814453
1421.691406	8505.447266
1420.616211	8464.382813
1419.541016	8581.430664
1418.464844	8628.700195
1417.389648	8480.725586
1416.313477	8476.874023
1415.237305	8575.247070
1414.161133	8673.584961
1413.084961	8662.732422
1412.007813	8493.984375
1410.931641	8548.171875
1409.854492	8648.763672
1408.777344	8487.071289
1407.700195	8501.783203
1406.622070	8604.647461
1405.543945	8716.752930
1404.466797	8592.268555
1403.387695	8581.444336
1402.309570	8758.403320
1401.231445	8576.032227
1400.152344	8664.864258
1399.073242	8635.498047
1397.994141	8687.221680
1396.915039	8467.934570
1395.834961	8545.142578
1394.755859	8453.302734
1393.675781	8514.280273
1392.595703	8443.308594
1391.514648	8698.649414
1390.434570	8382.420898
1389.353516	8639.992188
1388.272461	8557.483398
1387.191406	8502.753906
1386.110352	8392.554688
1385.029297	8538.981445
1383.947266	8532.817383
1382.865234	8528.966797
1381.783203	8504.323242
1380.701172	8671.412109
1379.618164	8388.087891
1378.536133	8499.717773
1377.453125	8391.984375
1376.370117	8489.723633
1375.286133	8377.415039
1374.203125	8410.512695
1373.119141	8459.748047
1372.035156	8354.423828
1370.951172	8281.423828
1369.867188	8429.801758
1368.783203	8356.813477
1367.698242	8429.060547
1366.613281	8236.264648
1365.528320	8331.547852
1364.443359	8260.932617
1363.357422	8376.905273
1362.272461	8175.045410
1361.186523	8337.039063
1360.100586	8305.606445
1359.013672	8327.121094
1357.927734	8261.183594
1356.840820	8379.329102
1355.753906	8099.474121
1354.666992	8265.903320
1353.580078	8229.916992
1352.492188	8301.999023
1351.405273	8033.852539
1350.317383	8218.558594
1349.229492	8194.093750
1348.140625	8047.874512
1347.052734	8136.001953
1345.963867	8253.953125
1344.875000	8178.982910
1343.786133	8071.898438
1342.697266	8130.117188
1341.608398	8261.751953
1340.518555	8193.716797
1339.428711	8098.175781
1338.338867	8261.856445
1337.248047	8109.005371
1336.158203	8137.344727
1335.067383	8186.306152
1333.976563	8168.780273
1332.885742	8137.510742
1331.794922	8184.153320
1330.703125	8175.799316
1329.612305	8066.671875
1328.520508	8088.111328
1327.428711	8033.987793
1326.335938	8078.315430
1325.244141	7983.015625
1324.151367	8171.498535
1323.058594	8266.110352
1321.965820	8111.353027
1320.873047	8169.347168
1319.779297	8199.880859
1318.685547	8038.359863
1317.591797	7908.898438
1316.498047	8065.157715
1315.404297	8095.686523
1314.309570	8245.000977
1313.214844	8076.764160
1312.121094	7972.532715
1311.025391	8048.721191
1309.930664	8161.408203
1308.834961	8207.861328
1307.740234	8176.707031
1306.644531	8122.746582
1305.547852	8164.618164
1304.452148	8199.631836
1303.355469	8052.198242
1302.259766	8192.099609
1301.163086	8031.041992
1300.065430	8084.286621
1298.968750	8107.887207
1297.871094	8140.592773
1296.774414	8227.956055
1295.676758	8155.860840
1294.578125	8070.127930
1293.480469	8084.601563
1292.381836	8135.489746
1291.283203	8106.703613
1290.184570	8112.059570
1289.085938	8119.688477
1287.987305	8150.060059
1286.887695	8023.498535
1285.788086	8081.162598
1284.688477	7993.306641
1283.588867	8014.585938
1282.488281	8040.402832
1281.388672	8138.918945
1280.288086	7967.060059
1279.187500	8026.940430
1278.085938	8193.532227
1276.985352	8223.833008
1275.883789	8190.558105
1274.782227	8145.946777
1273.680664	7994.695313
1272.579102	8206.517578
1271.476563	8032.624512
1270.375000	8203.538086
1269.272461	8127.215820
1268.169922	8025.981934
1267.066406	8044.925781
1265.963867	8023.066895
1264.860352	7928.704102
1263.756836	8047.339355
1262.653320	7941.680176
1261.549805	7849.646973
1260.445313	7972.759766
1259.340820	7844.531250
1258.236328	7969.862793
1257.131836	7884.679688
1256.027344	7912.662109
1254.921875	8044.699219
1253.816406	7948.238281
1252.710938	7845.027344
1251.605469	7904.649902
1250.500000	7928.080078
1249.393555	7797.805664
1248.287109	7990.732910
1247.180664	7871.791016
1246.074219	7834.215820
1244.966797	7837.308105
1243.860352	7765.879883
1242.752930	7834.458496
1241.645508	7864.636719
1240.538086	7766.157715
1239.429688	7812.132324
1238.321289	7817.479492
1237.212891	7870.194824
1236.104492	7760.508789
1234.996094	7871.841797
1233.887695	7978.624512
1232.778320	7632.299805
1231.668945	7707.535645
1230.559570	7694.866699
1229.449219	7781.327637
1228.339844	7766.396973
1227.229492	7578.065430
1226.119141	7669.002441
1225.008789	7728.388672
1223.898438	7578.429688
1222.787109	7574.799805
1221.675781	7645.419922
1220.564453	7558.544434
1219.453125	7570.663086
1218.341797	7715.453613
1217.229492	7513.946289
1216.117188	7669.933105
1215.004883	7742.704590
1213.892578	7491.865234
1212.779297	7600.588867
1211.666992	7608.189941
1210.553711	7766.261719
1209.440430	7526.826660
1208.327148	7514.229980
1207.212891	7564.488281
1206.098633	7545.156250
1204.985352	7586.414063
1203.870117	7479.590820
1202.755859	7590.378906
1201.641602	7716.824219
1200.526367	7569.674805
1199.411133	7615.372559
1198.295898	7681.226074
1197.179688	7561.054199
1196.064453	7629.133789
1194.948242	7567.258301
1193.832031	7556.919922
1192.715820	7562.260254
1191.598633	7433.262207
1190.482422	7440.860840
1189.365234	7540.219238
1188.248047	7565.696777
1187.130859	7548.655762
1186.012695	7560.700195
1184.895508	7534.719727
1183.777344	7513.220703
1182.659180	7590.098633
1181.540039	7398.716797
1180.421875	7486.761230
1179.302734	7530.083984
1178.183594	7542.114258
1177.064453	7505.000000
1175.945313	7539.361816
1174.825195	7596.039063
1173.706055	7536.610352
1172.585938	7664.690918
1171.465820	7471.375000
1170.344727	7764.527344
1169.224609	7383.877930
1168.103516	7583.263184
1166.982422	7615.328125
1165.861328	7555.969238
1164.739258	7489.944336
1163.618164	7564.354004
1162.496094	7560.744141
1161.374023	7530.400391
1160.250977	7537.935059
1159.128906	7636.778809
1158.005859	7561.902344
1156.882813	7531.579102
1155.759766	7590.302246
1154.636719	7502.121582
1153.512695	7474.050293
1152.389648	7492.706543
1151.265625	7509.131836
1150.141602	7563.355957
1149.016602	7524.175293
1147.892578	7453.885742
1146.767578	7536.983887
1145.642578	7466.716797
1144.517578	7589.774414
1143.391602	7568.394531
1142.266602	7431.528809
1141.140625	7603.377930
1140.014648	7588.666504
1138.888672	7598.377930
1137.761719	7537.064941
1136.634766	7517.934570
1135.507813	7469.969727
1134.380859	7315.549316
1133.253906	7480.544434
1132.126953	7370.524902
1130.999023	7409.082031
1129.871094	7440.975098
1128.743164	7342.103516
1127.614258	7247.699219
1126.486328	7248.588379
1125.357422	7382.373047
1124.228516	7276.939453
1123.099609	7282.250000
1121.969727	7258.780273
1120.840820	7390.250488
1119.710938	7298.168945
1118.581055	7303.470215
1117.450195	7291.073242
1116.320313	7225.599121
1115.189453	7292.826660
1114.058594	7178.736328
1112.927734	7206.158203
1111.796875	7105.385254
1110.665039	7110.713379
1109.534180	7153.596680
1108.402344	7258.311523
1107.270508	7137.726074
1106.137695	7388.136230
1105.005859	7320.553711
1103.873047	7195.607422
1102.740234	7342.146973
1101.606445	7181.938965
1100.473633	7249.010254
1099.339844	7263.121094
1098.206055	7155.939941
1097.072266	7185.496094
1095.938477	7073.958496
1094.803711	7055.030273
1093.669922	7029.497559
1092.535156	7041.428223
1091.400391	7139.263672
1090.264648	7065.275879
1089.129883	7112.424316
1087.994141	7018.653809
1086.858398	7067.994629
1085.722656	7106.312500
1084.585938	7094.007813
1083.450195	7103.706543
1082.313477	6983.627441
1081.176758	7030.728027
1080.039063	7159.165527
1078.902344	7043.538086
1077.764648	7044.443848
1076.626953	7148.634277
1075.489258	7046.253906
1074.351563	7053.748047
1073.212891	6995.349121
1072.074219	6978.693848
1070.935547	6966.436035
1069.796875	6910.279297
1068.658203	7012.163086
1067.518555	7039.402832
1066.378906	7064.437988
1065.239258	7157.462402
1064.099609	6903.939941
1062.958984	7034.235840
1061.819336	7035.136719
1060.678711	7187.278809
1059.537109	6986.531738
1058.396484	6941.426758
1057.255859	7165.794922
1056.114258	7008.967773
1054.972656	7005.490723
1053.831055	6993.256348
1052.688477	7022.619141
1051.545898	7089.178711
1050.404297	7103.194824
1049.261719	6999.059082
1048.118164	7006.522949
1046.975586	6797.462891
1045.832031	6988.642090
1044.688477	7103.230957
1043.544922	6979.516113
1042.401367	7142.144531
1041.256836	6996.616699
1040.112305	6995.331055
1038.967773	6930.701172
1037.823242	6931.611328
1036.677734	7015.492188
1035.533203	7038.216309
1034.387695	6960.529297
1033.242188	7105.461426
1032.096680	7058.335449
1030.950195	6969.779297
1029.803711	6942.324707
1028.657227	6951.951172
1027.510742	6963.754395
1026.364258	6942.854980
1025.216797	7048.371582
1024.069336	6896.719727
1022.921875	6928.130859
1021.774414	6900.717285
1020.626953	6929.937988
1019.478516	7054.955078
1018.330078	7018.824219
1017.181641	6913.053223
1016.033203	6937.895996
1014.883789	6910.509277
1013.734375	7028.887207
1012.584961	7025.418457
1011.435547	6891.471680
1010.286133	6829.323730
1009.135742	6928.063965
1007.985352	6852.891113
1006.834961	6875.532715
1005.684570	6811.260254
1004.533203	6942.513184
1003.382813	6975.984375
1002.231445	7118.015625
1001.079102	6836.639160
999.927734	6826.697266
998.776367	6944.803711
997.624023	6841.541504
996.471680	6755.672363
995.318359	6782.625488
994.166016	6881.133789
993.012695	6745.434570
991.859375	6724.681152
990.706055	6636.743652
989.552734	6648.522949
988.398438	6846.629883
987.245117	6752.219238
986.090820	6642.681641
984.936523	6862.333984
983.781250	6780.961914
982.625977	6654.161621
981.471680	6588.007324
980.316406	6649.544434
979.160156	6650.481934
978.004883	6711.984375
976.848633	6665.330566
975.692383	6655.452637
974.536133	6690.976563
973.379883	6711.357422
972.222656	6630.160156
971.065430	6635.418945
969.908203	6603.951172
968.750977	6764.723145
967.592773	6651.182617
966.435547	6604.614746
965.277344	6614.189453
964.119141	6580.594727
962.959961	6687.274414
961.801758	6606.213867
960.642578	6661.078613
959.483398	6629.655762
958.324219	6628.431641
957.164063	6609.960938
956.004883	6582.875000
954.844727	6644.157227
953.684570	6606.300781
952.523438	6512.446289
951.363281	6616.785156
950.202148	6706.010254
949.041016	6674.628418
947.879883	6623.883301
946.717773	6560.243164
945.556641	6537.512207
944.394531	6452.395508
943.232422	6584.572754
942.070313	6600.562012
940.907227	6601.493164
939.744141	6638.972168
938.581055	6657.090820
937.417969	6544.105957
936.254883	6572.979004
935.090820	6578.209473
933.926758	6667.207031
932.762695	6631.613770
931.598633	6662.595215
930.433594	6545.439453
929.269531	6709.498535
928.104492	6555.895020
926.939453	6679.125488
925.773438	6628.551758
924.608398	6655.208008
923.442383	6707.586426
922.276367	6622.731445
921.109375	6651.516602
919.943359	6609.565918
918.776367	6653.341797
917.609375	6682.104492
916.442383	6723.708008
915.275391	6536.145508
914.107422	6569.195313
912.939453	6651.471191
911.771484	6652.380859
910.603516	6479.949219
909.435547	6662.756836
908.266602	6655.105957
907.097656	6683.817871
905.928711	6498.676270
904.759766	6576.580078
903.589844	6577.500488
902.419922	6621.165039
901.250000	6553.696777
900.080078	6667.851563
898.909180	6668.752930
897.739258	6603.448242
896.568359	6600.090332
895.397461	6607.407715
894.225586	6648.873047
893.054688	6645.507813
891.882813	6460.780273
890.710938	6487.316406
889.539063	6543.702637
888.366211	6604.332520
887.193359	6586.052246
886.021484	6473.983398
884.847656	6434.419922
883.674805	6475.845703
882.500977	6427.774414
881.328125	6530.958984
880.154297	6459.467773
878.979492	6390.131836
877.805664	6493.265137
876.630859	6421.819336
875.456055	6456.807617
874.281250	6468.376953
873.106445	6399.102051
871.930664	6472.359375
870.754883	6509.437500
869.579102	6363.650391
868.403320	6385.853516
867.227539	6314.531738
866.050781	6338.860352
864.874023	6433.291504
863.697266	6423.601074
862.519531	6392.676270
861.342773	6450.945801
860.165039	6411.534668
858.987305	6327.562500
857.809570	6375.199707
856.630859	6225.487305
855.452148	6402.533691
854.273438	6161.666504
853.094727	6300.486328
851.916016	6282.354980
850.736328	6262.109863
849.556641	6180.406738
848.376953	6172.902344
847.197266	6264.978516
846.017578	6371.848633
844.836914	6398.198242
843.656250	6335.602539
842.475586	6266.677734
841.293945	6168.144531
840.113281	6277.048340
838.931641	6349.940430
837.750000	6340.298828
836.567383	6163.562988
835.385742	6293.533203
834.203125	6258.533691
833.020508	6445.515137
831.837891	6332.297363
830.654297	6269.837891
829.471680	6376.425781
828.288086	6345.666992
827.104492	6298.023438
825.919922	6153.262207
824.736328	6177.453125
823.551758	6305.065918
822.367188	6204.703125
821.182617	6296.391602
819.997070	6303.659668
818.812500	6228.663086
817.626953	6265.464355
816.441406	6203.153320
815.254883	6307.404297
814.069336	6266.185059
812.882813	6305.058105
811.696289	6284.923340
810.508789	6359.588867
809.322266	6396.315918
808.134766	6382.491699
806.947266	6393.936035
805.759766	6407.480957
804.572266	6442.066406
803.383789	6520.826172
802.195313	6769.962402
801.006836	6890.698730
799.818359	7011.390137
798.628906	7018.495117
797.439453	7322.009766
796.250000	7406.821289
795.060547	7338.196777
793.871094	7513.317871
792.680664	7482.509766
791.490234	7676.440430
790.299805	7826.201172
789.109375	8099.774902
787.917969	8591.550781
786.726563	9351.776367
785.535156	9811.661133
784.343750	10334.311523
783.152344	10638.624023
781.959961	10944.919922
780.767578	11058.201172
779.575195	10968.094727
778.381836	10938.802734
777.189453	10593.091797
775.996094	10404.646484
774.802734	9985.844727
773.609375	9764.072266
772.415039	9316.229492
771.220703	8803.650391
770.026367	8448.254883
768.832031	8051.133789
767.637695	7834.110840
766.442383	7589.972168
765.247070	7534.173340
764.051758	7426.113281
762.855469	7219.821777
761.660156	7220.565918
760.463867	7068.731934
759.267578	7196.975586
758.071289	7304.277832
756.874023	7177.579102
755.676758	7428.954102
754.480469	7281.396973
753.282227	7351.022461
752.084961	7550.039063
750.886719	7680.110352
749.688477	7613.992676
748.490234	7524.950684
747.291992	7402.568848
746.092773	7296.915527
744.894531	7349.764648
743.695313	7110.742188
742.495117	7073.982422
741.295898	7139.345703
740.095703	7056.756836
738.895508	7001.278809
737.695313	7095.775879
736.495117	7140.261230
735.293945	7245.106445
734.092773	7235.426758
732.891602	7175.803223
731.690430	7186.947266
730.488281	7133.595703
729.286133	7342.341309
728.083984	7295.218262
726.881836	7352.072754
725.679688	7629.260742
724.476563	7906.344727
723.273438	8341.255859
722.070313	8761.459961
720.866211	9210.588867
719.663086	9750.931641
718.458984	10185.171875
717.254883	10309.909180
716.050781	10254.013672
714.845703	10301.904297
713.640625	9945.164063
712.435547	9652.868164
711.230469	9368.977539
710.025391	9201.323242
708.819336	9015.071289
707.613281	8801.939453
706.407227	8657.283203
705.200195	8417.358398
703.994141	8376.418945
702.787109	8271.280273
701.580078	8346.361328
700.373047	8168.792969
699.165039	8028.555664
697.957031	8058.101563
696.749023	8085.566406
695.541016	7980.597168
694.333008	8074.265137
693.124023	7946.584961
691.915039	7854.107422
690.706055	7945.677734
689.496094	7749.875000
688.287109	7682.286133
687.077148	7806.898926
685.867188	7863.285645
684.656250	7775.056641
683.446289	7755.013184
682.235352	7739.106934
681.024414	7789.269043
679.813477	7760.977051
678.601563	7712.058105
677.390625	7607.447754
676.178711	7401.792480
674.965820	7421.030762
673.753906	7326.843262
672.541016	7170.837891
671.328125	7070.547363
670.115234	6770.377930
668.902344	6868.018066
667.688477	6741.057129
666.475586	6667.699219
665.261719	6462.563477
664.046875	6416.052734
662.833008	6373.676270
661.618164	6306.615723
660.403320	6144.916504
659.188477	6102.613770
657.972656	6068.555176
656.757813	6015.998047
655.541992	6023.095215
654.326172	5884.214844
653.109375	5996.168945
651.893555	5995.044434
650.676758	5909.671875
649.459961	5937.325195
648.242188	5967.021973
647.025391	5902.238770
645.807617	6059.233887
644.589844	5791.220215
643.372070	5909.179199
642.153320	5916.278809
640.935547	5947.996094
639.716797	5961.239258
638.497070	5867.826660
637.278320	5901.584961
636.058594	5873.824219
634.838867	5860.422363
633.619141	5795.790039
632.399414	5792.652344
631.178711	5752.640137
629.958984	5755.656250
628.737305	5756.623047
627.516602	5718.687012
626.295898	5713.518555
625.074219	5843.436523
623.852539	5750.252930
622.630859	5908.757813
621.408203	5819.687500
620.185547	5738.831543
618.962891	5790.917969
617.740234	5873.651855
616.517578	5923.648926
615.293945	5979.758301
614.070313	5978.634277
612.846680	5940.738281
611.623047	5953.918945
610.398438	5975.263184
609.173828	5921.054688
607.949219	6195.524902
606.724609	6165.786133
605.499023	6146.261230
604.274414	6204.271484
603.048828	6113.352539
601.822266	6150.952148
600.596680	6157.951172
599.370117	6189.411621
598.143555	6210.668457
596.916992	6164.666504
595.690430	6035.142578
594.462891	5968.818359
593.235352	5892.335449
592.007813	5966.572266
590.780273	5985.809570
589.551758	5956.184570
588.323242	5826.844238
587.094727	5939.698730
585.866211	5948.752930
584.636719	5955.769531
583.407227	5981.085938
582.177734	5965.727051
580.948242	5885.319336
579.718750	5806.974609
578.488281	5846.524414
577.257813	5798.692383
576.027344	5901.201660
574.795898	5859.469727
573.564453	5903.040039
572.333984	5910.048828
571.101563	5872.397949
569.870117	5924.058105
568.637695	5870.185547
567.405273	5954.285645
566.172852	5709.763184
564.940430	5743.162598
563.707031	5863.734375
562.474609	5961.961426
561.240234	5737.889160
560.006836	5819.891113
558.773438	5772.194824
557.539063	5803.517578
556.304688	5778.120117
555.070313	5742.607422
553.834961	5907.534668
552.599609	5829.503418
551.364258	5796.024414
550.128906	5728.160156
548.893555	5941.516602
547.657227	5972.757324
546.420898	5799.741699
545.184570	5887.608887
543.947266	5809.682617
542.710938	5960.167480
541.473633	5874.173340
540.236328	5929.633789
538.998047	6017.392090
537.760742	6090.980469
536.522461	6261.460449
535.284180	6343.049316
534.045898	6267.170898
532.806641	6282.131836
531.567383	6367.705078
530.328125	6414.917480
529.088867	6258.405762
527.848633	6267.306641
526.609375	6368.945801
525.369141	6387.900391
524.127930	6187.172852
522.887695	6308.918457
521.646484	6301.683105
520.405273	6260.208496
519.164063	6222.776367
517.922852	6253.816406
516.680664	6288.870605
515.438477	6358.126953
514.196289	6546.083496
512.953125	6661.539551
511.710938	6583.841309
510.467773	6628.854004
509.224609	6569.288086
507.980469	6684.650879
506.737305	6713.538086
505.493164	6708.249512
504.249023	6968.187988
503.004883	6890.532227
501.759766	6933.416992
500.514648	6948.170898
499.269531	6932.802734
498.024414	6969.631836
496.778320	7134.895020
495.532227	6960.976074
494.286133	7015.833984
493.040039	7004.477539
491.793945	6985.103516
490.546875	7029.899414
489.299805	6876.209961
488.052734	7017.217773
486.804688	6991.842285
485.557617	6912.379395
484.309570	6979.180176
483.060547	6883.726074
481.812500	7008.577637
480.563477	7061.307129
479.314453	7112.014648
478.065430	6946.560547
476.816406	7029.284668
475.566406	7039.957031
474.316406	7016.622070
473.066406	7207.273926
471.816406	7175.917969
470.565430	7206.543457
469.314453	7431.027344
468.063477	7477.578613
466.812500	7528.107910
465.560547	7702.464355
464.309570	7862.773926
463.056641	7967.113281
461.804688	7785.928223
460.552734	7822.377441
459.299805	7753.043457
458.046875	7719.649902
456.792969	7748.110352
455.540039	7926.146973
454.286133	7761.126465
453.032227	7913.173340
451.778320	7786.091309
450.523438	7790.594238
449.269531	7667.567871
448.014648	7602.362305
446.758789	7377.833008
445.503906	7537.743652
444.248047	7265.524414
442.992188	7385.580566
441.736328	7288.643066
440.480469	7219.602051
439.223633	7118.752930
437.966797	6908.535156
436.709961	6901.257813
435.452148	6909.890625
434.195313	7033.828613
432.937500	6984.789063
431.679688	6929.805664
430.420898	7214.611328
429.162109	7326.476563
427.904297	7404.533691
426.644531	7609.653320
425.385742	7596.295898
424.125977	7719.912598
422.867188	7795.850098
421.606445	7675.311035
420.346680	7858.359375
419.085938	7692.231934
417.826172	7799.846191
416.565430	7859.831543
415.303711	8044.687012
414.042969	7963.876953
412.781250	8271.504883
411.519531	8717.707031
410.256836	9502.475586
408.995117	11691.152344
407.732422	16187.872070
406.469727	24002.994141
405.207031	34780.308594
403.943359	48767.484375
402.679688	72486.343750
401.416016	0.000000
400.152344	0.000000
398.887695	0.000000
397.624023	0.000000
396.358398	42485.019531
395.093750	18837.136719
393.829102	12986.478516
392.563477	11083.427734
391.297852	10415.650391
390.032227	10046.337891
388.765625	9621.877930
387.499023	9363.407227
386.232422	9310.308594
384.965820	9024.367188
383.699219	8704.993164
382.431641	8366.013672
381.164063	8027.162598
379.896484	8021.690918
378.627930	8051.708984
377.359375	8063.974609
376.090820	8482.214844
374.822266	9245.115234
373.553711	10967.126953
372.284180	14177.538086
371.014648	20015.707031
369.745117	29468.521484
368.474609	42553.601563
367.205078	61953.425781
365.934570	94126.562500
364.663086	0.000000
363.392578	0.000000
362.121094	0.000000
360.849609	0.000000
359.578125	112750.375000
358.306641	69626.843750
357.034180	52636.621094
355.761719	42392.062500
354.489258	34758.167969
353.215820	29004.792969
351.943359	24372.892578
350.669922	21028.705078
349.396484	18410.105469
348.122070	16304.723633
346.847656	14716.191406
345.574219	13324.442383
344.298828	12664.829102
343.024414	11795.636719
341.749023	11213.031250
340.473633	10781.589844
339.198242	10087.683594
337.922852	9531.209961
336.646484	9153.231445
335.370117	8845.914063
334.093750	8609.215820
332.816406	8153.307129
331.540039	8008.841309
330.262695	7731.333984
328.985352	7444.147949
327.707031	7427.074707
326.429688	7245.688965
325.151367	7064.372070
323.873047	6935.920898
322.593750	6846.619141
321.314453	6743.668945
320.035156	6756.061523
318.755859	6625.812012
317.476563	6546.404297
316.196289	6603.750000
314.916016	6551.715820
313.635742	6376.696777
312.355469	6311.060547
311.074219	6288.386719
309.792969	6293.039551
308.511719	6256.720215
307.229492	6173.600586
305.948242	6024.205078
304.666016	6044.502441
303.383789	5982.914063
302.100586	5843.385254
300.818359	5898.781738
299.535156	5919.086426
298.250977	6019.250000
296.967773	6041.470703
295.683594	6145.466797
294.399414	6385.702637
293.115234	6668.669434
291.831055	6928.173828
290.545898	7251.788574
289.260742	7585.006348
287.975586	7828.625977
286.690430	8116.878418
285.404297	8239.758789
284.118164	8401.468750
282.832031	8294.912109
281.544922	8481.810547
280.258789	8268.426758
278.971680	8486.335938
277.683594	8391.495117
276.396484	8471.438477
275.108398	8489.230469
273.820313	8627.351563
272.532227	8627.641602
271.243164	8738.519531
269.955078	8612.700195
268.666016	8578.082031
267.376953	8496.938477
266.086914	8460.415039
264.796875	8577.033203
263.506836	8645.156250
262.216797	8734.567383
260.926758	9033.160156
259.635742	9079.851563
258.344727	9136.206055
257.053711	9374.531250
255.761719	9682.450195
254.469727	9905.095703
253.177734	9856.758789
251.885742	9754.270508
250.593750	9796.889648
249.300781	9814.351563
248.007813	9754.465820
246.713867	9961.374023
245.420898	10228.117188
244.126953	10626.159180
242.833008	11197.929688
241.539063	11933.669922
240.244141	12852.597656
238.949219	13956.539063
237.654297	15046.542969
236.359375	15721.143555
235.063477	16133.033203
233.768555	15649.514648
232.472656	14691.634766
231.175781	13682.046875
229.879883	12707.554688
228.583008	11808.625977
227.286133	10900.403320
225.988281	10480.110352
224.691406	10009.879883
223.393555	9640.005859
222.095703	9468.660156
220.796875	9376.333984
219.499023	9303.296875
218.200195	9289.960938
216.901367	9538.377930
215.601563	9677.016602
214.302734	9915.643555
213.002930	10061.849609
211.703125	10292.617188
210.402344	10654.043945
209.102539	11086.459961
207.801758	11699.379883
206.500000	11541.479492
205.199219	11135.791992
203.897461	10507.433594
202.595703	10136.668945
201.293945	9652.755859
199.992188	9336.052734
198.689453	9178.784180
197.386719	8929.459961
196.083984	8678.312500
194.780273	8511.667969
193.477539	8341.250977
192.173828	8335.812500
190.869141	8322.707031
189.565430	8186.926758
188.260742	8118.275879
186.956055	8026.657227
185.651367	7938.905273
184.345703	8017.825195
183.040039	7889.892090
181.734375	7920.924316
180.428711	8005.543945
179.122070	8120.753418
177.816406	8189.993164
176.508789	8023.884277
175.202148	7930.525879
173.895508	7971.074219
172.587891	7910.266113
171.280273	7748.160645
169.971680	7710.354492
168.664063	7519.684570
167.355469	7523.969238
166.046875	7457.573242
164.737305	7230.772949
163.427734	7198.829590
162.119141	7140.169434
160.808594	7047.174316
159.499023	6809.175781
158.188477	6617.061523
156.877930	6587.172852
155.567383	6477.188477
154.256836	6535.056152
152.945313	6356.486816
151.633789	6340.013184
150.322266	6390.249512
149.009766	6288.029297
147.697266	6538.290527
146.384766	6550.364258
145.072266	6621.468262
143.759766	6587.824219
142.446289	6617.013184
141.132813	6570.059570
139.818359	6646.812500
138.504883	6280.246094
137.190430	5833.929688
135.875977	5595.081055
134.560547	5468.508301
133.246094	5399.015625
131.930664	5375.166504
130.615234	5227.805176
129.298828	5378.793945
127.983398	5510.728516
126.666992	5625.519043
125.350586	5772.545410
124.033203	5592.973145
122.716797	5576.709473
121.399414	5488.336426
120.081055	5327.896484
118.763672	5281.339844
117.445313	5183.590820
116.126953	5138.975586
114.808594	4993.893066
113.489258	4909.524414
112.170898	4973.013672
110.851563	4896.260254
109.531250	5048.767578
108.211914	5000.440430
106.891602	4874.488281
105.571289	4790.238770
104.250000	4798.778809
102.929688	4459.069336
101.608398	4197.073730
100.287109	3791.393799
98.964844	3703.650391
