#Wave		#Intensity
1766.472656	17946.947266
1764.732422	18041.867188
1762.994141	18461.644531
1761.255859	18255.880859
1759.517578	18333.359375
1757.777344	18333.195313
1756.037109	18422.121094
1754.296875	18276.822266
1752.556641	18171.789063
1750.816406	18145.781250
1749.076172	18109.722656
1747.333984	18243.095703
1745.593750	18041.935547
1743.851563	18103.500000
1742.109375	18442.005859
1740.367188	18080.199219
1738.623047	18310.990234
1736.880859	18101.357422
1735.138672	18230.236328
1733.394531	18274.470703
1731.650391	18304.349609
1729.906250	18040.371094
1728.162109	17929.822266
1726.416016	17933.937500
1724.671875	17867.845703
1722.925781	17912.066406
1721.181641	17910.439453
1719.435547	17699.750000
1717.689453	17815.544922
1715.941406	17775.271484
1714.195313	17911.042969
1712.449219	17866.464844
1710.701172	18036.498047
1708.953125	17632.869141
1707.205078	17841.490234
1705.457031	17742.597656
1703.708984	17782.416016
1701.958984	17968.017578
1700.210938	17929.167969
1698.460938	17966.062500
1696.710938	17520.039063
1694.960938	17665.542969
1693.210938	17488.220703
1691.458984	17492.302734
1689.708984	17667.703125
1687.957031	17521.863281
1686.205078	17513.080078
1684.453125	17611.316406
1682.701172	17437.015625
1680.947266	17107.289063
1679.195313	17456.541016
1677.441406	17578.941406
1675.687500	17667.076172
1673.935547	17440.156250
1672.179688	17388.609375
1670.425781	17519.466797
1668.671875	18319.869141
1666.916016	17605.824219
1665.160156	17226.708984
1663.404297	17343.246094
1661.648438	17240.492188
1659.892578	17369.787109
1658.136719	17039.355469
1656.378906	17302.382813
1654.621094	17543.972656
1652.863281	17213.671875
1651.105469	17150.847656
1649.347656	17225.962891
1647.589844	16915.789063
1645.830078	17106.041016
1644.070313	17142.742188
1642.312500	17014.605469
1640.552734	17287.119141
1638.791016	17282.564453
1637.031250	16985.472656
1635.269531	17193.937500
1633.509766	17122.671875
1631.748047	17150.777344
1629.986328	17164.679688
1628.224609	16860.765625
1626.460938	16951.306641
1624.699219	17063.083984
1622.935547	16977.714844
1621.171875	16926.400391
1619.408203	16900.613281
1617.644531	17012.302734
1615.880859	16782.460938
1614.115234	16759.535156
1612.351563	17036.900391
1610.585938	16982.775391
1608.820313	16961.230469
1607.054688	16842.009766
1605.287109	16712.923828
1603.521484	16755.109375
1601.753906	16696.822266
1599.986328	16760.207031
1598.218750	16693.445313
1596.451172	16918.005859
1594.683594	16609.470703
1592.914063	16650.193359
1591.144531	16717.750000
1589.376953	17086.250000
1587.605469	16510.888672
1585.835938	16322.759766
1584.066406	16469.396484
1582.294922	16483.250000
1580.525391	16511.212891
1578.753906	16328.856445
1576.982422	16393.519531
1575.210938	16538.576172
1573.437500	16402.859375
1571.666016	16271.419922
1569.892578	16495.373047
1568.119141	16457.007813
1566.345703	16329.850586
1564.572266	16462.048828
1562.796875	16171.484375
1561.023438	16293.794922
1559.248047	16206.189453
1557.472656	16250.987305
1555.697266	16391.505859
1553.919922	16337.706055
1552.144531	16364.145508
1550.367188	16572.095703
1548.591797	16262.227539
1546.814453	16200.039063
1545.035156	16427.580078
1543.257813	16335.849609
1541.480469	16216.034180
1539.701172	16080.800781
1537.921875	16170.459961
1536.142578	16215.120117
1534.363281	16091.193359
1532.582031	16120.395508
1530.802734	16191.709961
1529.021484	16114.177734
1527.240234	16130.716797
1525.458984	16068.656250
1523.677734	16069.756836
1521.894531	15837.983398
1520.113281	15997.611328
1518.330078	16143.150391
1516.546875	15991.402344
1514.763672	15929.421875
1512.980469	16009.010742
1511.195313	16012.901367
1509.410156	15848.675781
1507.626953	15865.194336
1505.839844	15871.901367
1504.054688	16050.815430
1502.269531	16064.476563
1500.482422	15985.757813
1498.697266	15767.138672
1496.910156	15646.532227
1495.121094	15849.078125
1493.333984	15892.117188
1491.546875	15648.507813
1489.757813	15846.731445
1487.968750	15972.196289
1486.179688	15885.209961
1484.390625	15685.090820
1482.601563	15663.839844
1480.810547	15870.228516
1479.019531	15558.520508
1477.228516	15568.009766
1475.437500	15454.668945
1473.646484	15511.613281
1471.855469	15632.708984
1470.062500	15509.650391
1468.269531	15364.323242
1466.476563	15591.335938
1464.683594	15685.821289
1462.890625	15575.381836
1461.095703	15246.204102
1459.300781	15449.363281
1457.505859	15502.001953
1455.710938	15445.989258
1453.916016	15401.133789
1452.121094	15342.374023
1450.324219	15255.796875
1448.527344	15512.964844
1446.730469	15358.210938
1444.933594	15206.297852
1443.134766	15215.765625
1441.337891	15307.262695
1439.539063	15151.272461
1437.740234	15235.791016
1435.941406	15172.974609
1434.142578	15140.747070
1432.341797	15214.095703
1430.541016	15015.215820
1428.742188	15176.028320
1426.941406	15127.156250
1425.138672	15160.187500
1423.337891	15282.011719
1421.535156	15156.835938
1419.732422	15163.478516
1417.929688	15074.427734
1416.126953	14954.907227
1414.324219	15238.825195
1412.519531	15066.648438
1410.716797	14775.371094
1408.912109	14831.941406
1407.107422	14683.491211
1405.300781	15094.566406
1403.496094	14781.357422
1401.689453	14860.018555
1399.882813	14693.680664
1398.076172	15026.921875
1396.269531	14965.752930
1394.460938	14955.781250
1392.654297	14915.388672
1390.845703	14692.511719
1389.037109	14867.820313
1387.228516	14773.565430
1385.417969	14802.319336
1383.609375	14668.048828
1381.798828	14462.011719
1379.988281	14522.564453
1378.177734	14577.566406
1376.367188	14754.010742
1374.554688	14912.438477
1372.742188	14414.047852
1370.929688	14613.859375
1369.117188	14620.503906
1367.304688	14740.210938
1365.492188	14724.764648
1363.677734	14619.731445
1361.863281	14554.702148
1360.048828	14502.096680
1358.234375	14501.854492
1356.417969	14606.274414
1354.603516	14349.905273
1352.787109	14505.243164
1350.970703	14390.755859
1349.154297	14294.203125
1347.335938	14559.508789
1345.519531	14420.316406
1343.701172	14554.839844
1341.882813	14535.316406
1340.064453	14585.904297
1338.244141	14373.974609
1336.425781	14425.944336
1334.605469	14093.242188
1332.785156	14625.954102
1330.964844	14471.856445
1329.144531	14328.803711
1327.322266	14401.306641
1325.500000	13981.116211
1323.677734	14116.770508
1321.855469	14340.156250
1320.033203	14276.813477
1318.208984	14297.135742
1316.386719	14262.612305
1314.562500	14107.489258
1312.738281	14071.645508
1310.912109	13924.842773
1309.087891	14019.171875
1307.261719	14069.637695
1305.435547	14144.723633
1303.609375	14245.786133
1301.783203	13886.959961
1299.955078	13925.087891
1298.128906	13896.165039
1296.300781	13774.248047
1294.472656	13838.350586
1292.644531	13918.829102
1290.814453	13962.367188
1288.984375	14014.083008
1287.156250	13834.875977
1285.326172	13808.732422
1283.494141	13815.375000
1281.664063	14129.228516
1279.832031	13988.363281
1278.000000	14024.983398
1276.167969	13854.175781
1274.335938	13984.937500
1272.503906	13800.567383
1270.669922	13801.732422
1268.835938	13872.426758
1267.001953	13819.048828
1265.167969	13741.160156
1263.332031	13604.714844
1261.498047	13735.322266
1259.662109	13620.722656
1257.826172	13620.548828
1255.990234	13446.119141
1254.152344	13616.112305
1252.316406	13739.763672
1250.478516	13531.402344
1248.640625	13542.119141
1246.802734	13259.089844
1244.962891	13483.316406
1243.123047	13719.679688
1241.285156	13613.462891
1239.445313	13575.226563
1237.603516	13566.890625
1235.763672	13247.536133
1233.921875	13442.951172
1232.080078	13571.759766
1230.238281	13600.071289
1228.396484	13605.298828
1226.554688	13601.026367
1224.710938	13585.902344
1222.867188	13656.218750
1221.023438	13409.237305
1219.179688	13371.114258
1217.333984	13343.847656
1215.490234	13143.155273
1213.644531	13441.067383
1211.798828	13397.544922
1209.951172	13226.754883
1208.105469	13426.978516
1206.257813	13313.099609
1204.410156	13264.221680
1202.562500	13270.833984
1200.714844	13108.362305
1198.865234	13020.337891
1197.017578	13197.350586
1195.167969	13048.511719
1193.318359	13187.598633
1191.466797	13173.940430
1189.617188	13008.987305
1187.765625	13029.134766
1185.914063	13232.912109
1184.062500	13170.648438
1182.210938	13190.743164
1180.357422	13025.956055
1178.503906	13035.276367
1176.650391	13037.846680
1174.796875	12789.585938
1172.943359	13009.273438
1171.087891	12952.532227
1169.232422	12880.990234
1167.376953	12919.961914
1165.521484	13015.493164
1163.666016	12805.259766
1161.808594	12873.839844
1159.951172	13007.006836
1158.093750	12740.379883
1156.236328	12725.497070
1154.378906	12547.833984
1152.519531	12904.224609
1150.660156	12996.890625
1148.800781	12852.891602
1146.941406	12632.336914
1145.080078	12559.701172
1143.220703	13414.156250
1141.359375	12933.023438
1139.498047	13049.724609
1137.634766	12991.825195
1135.773438	12516.464844
1133.910156	12686.859375
1132.046875	12599.552734
1130.183594	12755.095703
1128.320313	12579.287109
1126.455078	12529.602539
1124.589844	12596.572266
1122.724609	12497.308594
1120.859375	12558.892578
1118.994141	12431.543945
1117.126953	12569.461914
1115.259766	12561.348633
1113.392578	12565.287109
1111.525391	12602.686523
1109.656250	12462.077148
1107.789063	12570.393555
1105.919922	12376.341797
1104.050781	12385.659180
1102.181641	12320.092773
1100.310547	12429.675781
1098.439453	12394.865234
1096.568359	12389.465820
1094.697266	12373.378906
1092.826172	12409.388672
1090.953125	12361.253906
1089.082031	12265.077148
1087.208984	12422.543945
1085.333984	12394.451172
1083.460938	12390.383789
1081.585938	12332.961914
1079.712891	12246.224609
1077.837891	12187.523438
1075.960938	12471.424805
1074.085938	12202.131836
1072.208984	12425.943359
1070.332031	12272.669922
1068.455078	12388.487305
1066.578125	12421.698242
1064.699219	12337.746094
1062.822266	12336.346680
1060.943359	12140.674805
1059.064453	12127.343750
1057.183594	12256.332031
1055.304688	12132.610352
1053.423828	12042.177734
1051.542969	12124.574219
1049.662109	12164.409180
1047.779297	12140.454102
1045.896484	12206.830078
1044.015625	12153.658203
1042.130859	12247.880859
1040.248047	12150.916016
1038.365234	12246.421875
1036.480469	12111.020508
1034.595703	11954.454102
1032.710938	12068.502930
1030.824219	12032.670898
1028.939453	12071.087891
1027.052734	12305.634766
1025.166016	12008.739258
1023.279297	11947.777344
1021.390625	12158.351563
1019.503906	12004.690430
1017.615234	12137.047852
1015.726563	11934.486328
1013.835938	12097.232422
1011.947266	11901.381836
1010.056641	11911.953125
1008.166016	11788.958984
1006.275391	12100.982422
1004.384766	11992.538086
1002.492188	12042.718750
1000.599609	11849.777344
998.707031	11713.718750
996.814453	11865.610352
994.919922	11829.950195
993.027344	11855.024414
991.132813	11893.284180
989.238281	11746.805664
987.341797	11856.302734
985.447266	11779.793945
983.550781	11968.343750
981.654297	11731.015625
979.757813	11952.437500
977.859375	11969.524414
975.962891	11939.176758
974.064453	11653.332031
972.166016	11810.045898
970.267578	11852.156250
968.367188	11671.813477
966.466797	11723.144531
964.566406	11809.971680
962.666016	11799.427734
960.765625	11613.994141
958.863281	11758.629883
956.960938	11750.729492
955.058594	11569.369141
953.156250	11677.127930
951.253906	12006.820313
949.349609	11880.676758
947.445313	11850.431641
945.541016	11952.774414
943.634766	11830.660156
941.730469	11657.431641
939.824219	11530.190430
937.917969	11535.460938
936.011719	11740.022461
934.103516	11758.349609
932.197266	11642.990234
930.289063	11602.366211
928.380859	11485.782227
926.470703	11390.203125
924.562500	11425.604492
922.652344	11451.824219
920.742188	11370.711914
918.832031	11442.726563
916.919922	11459.764648
915.009766	11449.327148
913.097656	11512.119141
911.185547	11627.173828
909.271484	11654.605469
907.359375	11663.729492
905.445313	11476.885742
903.531250	11412.900391
901.617188	11536.981445
899.701172	11525.230469
897.787109	11437.780273
895.871094	11362.112305
893.955078	11386.935547
892.037109	11501.746094
890.121094	11366.125000
888.203125	11387.015625
886.285156	11628.180664
884.367188	11553.868164
882.447266	11527.794922
880.529297	11443.116211
878.609375	11427.496094
876.689453	11273.871094
874.767578	11376.747070
872.847656	11322.106445
870.925781	11342.954102
869.003906	11437.935547
867.082031	11463.946289
865.158203	11352.122070
863.234375	11535.427734
861.312500	11306.669922
859.386719	11337.879883
857.462891	11289.833008
855.537109	11263.885742
853.613281	11104.209961
851.687500	11105.576172
849.759766	11341.848633
847.833984	11340.561523
845.906250	11406.731445
843.978516	11413.209961
842.050781	11357.444336
840.123047	11264.108398
838.193359	11349.671875
836.263672	11383.363281
834.333984	11336.718750
832.404297	11278.438477
830.472656	11534.839844
828.542969	11304.358398
826.611328	11133.517578
824.679688	11284.958984
822.746094	11363.883789
820.814453	11440.183594
818.880859	11322.480469
816.947266	11275.935547
815.011719	12006.214844
813.078125	11287.576172
811.142578	11230.731445
809.207031	11266.910156
807.271484	11142.944336
805.333984	11323.720703
803.398438	11247.554688
801.460938	11110.770508
799.523438	11366.254883
797.583984	11333.983398
795.646484	11246.273438
793.707031	11247.562500
791.767578	11132.841797
789.828125	11033.636719
787.886719	11251.417969
785.945313	11278.460938
784.003906	11178.000000
782.062500	11299.032227
780.121094	11257.821289
778.177734	11292.555664
776.234375	11161.299805
774.291016	11262.925781
772.347656	11013.421875
770.402344	11049.460938
768.458984	11163.892578
766.513672	11205.018555
764.566406	11118.926758
762.621094	11144.626953
760.673828	11067.576172
758.726563	10975.151367
756.779297	11249.891602
754.832031	11188.266602
752.882813	11135.649414
750.933594	11103.579102
748.984375	11251.068359
747.035156	11238.216797
745.083984	11244.597656
743.134766	11127.943359
741.183594	11198.409180
739.230469	11277.807617
737.279297	11156.100586
735.326172	11188.095703
733.373047	11063.902344
731.419922	10912.889648
729.466797	11154.753906
727.511719	11272.421875
725.556641	11047.285156
723.601563	11117.612305
721.646484	11071.578125
719.689453	11117.583008
717.734375	11214.673828
715.777344	11122.658203
713.818359	10961.717773
711.861328	11067.711914
709.902344	10955.365234
707.943359	10932.408203
705.984375	10993.672852
704.025391	11344.484375
702.064453	11021.737305
700.103516	11116.087891
698.142578	11002.604492
696.181641	11063.776367
694.218750	11075.225586
692.255859	11184.757813
690.292969	11100.652344
688.330078	11011.490234
686.367188	11143.872070
684.402344	10927.468750
682.437500	10886.757813
680.472656	11080.133789
678.505859	11090.276367
676.541016	11015.221680
674.574219	10982.150391
672.607422	10848.689453
670.638672	10957.981445
668.671875	11011.327148
666.703125	11180.219727
664.734375	11032.865234
662.763672	11053.146484
660.794922	10974.422852
658.824219	10844.979492
656.853516	10800.588867
654.882813	10937.581055
652.910156	10850.077148
650.939453	11027.557617
648.966797	10760.101563
646.992188	10907.107422
645.019531	10923.564453
643.044922	10929.879883
641.070313	11013.429688
639.095703	10845.023438
637.121094	10637.460938
635.144531	10767.833984
633.167969	10931.034180
631.191406	10705.887695
629.214844	10908.221680
627.238281	10824.765625
625.259766	11090.166992
623.281250	11019.340820
621.300781	10952.335938
619.322266	10868.943359
617.341797	10803.264648
615.361328	10685.860352
613.380859	10733.838867
611.400391	10832.264648
609.417969	10776.744141
607.435547	10994.922852
605.453125	10837.255859
603.468750	10727.563477
601.486328	10857.376953
599.501953	10851.048828
597.517578	10829.605469
595.531250	10759.054688
593.546875	10980.648438
591.560547	10907.575195
589.574219	10865.998047
587.587891	10662.128906
585.599609	10987.939453
583.611328	10737.602539
581.623047	10814.289063
579.634766	10762.719727
577.644531	11044.208984
575.656250	10779.012695
573.666016	10721.204102
571.673828	10871.891602
569.683594	10812.830078
567.691406	10785.176758
565.699219	10950.798828
563.707031	10908.067383
561.714844	10701.032227
559.720703	10768.735352
557.726563	10783.747070
555.732422	11021.870117
553.738281	10995.457031
551.742188	10922.698242
549.746094	10943.916992
547.750000	11146.708008
545.753906	11011.360352
543.755859	11202.771484
541.757813	11027.426758
539.759766	10903.459961
537.761719	10945.909180
535.761719	10805.760742
533.761719	10701.934570
531.761719	10718.148438
529.761719	10801.833984
527.759766	10989.173828
525.759766	10840.430664
523.757813	10741.707031
521.753906	10785.352539
519.751953	10841.457031
517.748047	10632.988281
515.744141	10861.262695
513.740234	10652.884766
511.734375	10791.262695
509.730469	10731.351563
507.724609	10928.221680
505.716797	10930.608398
503.710938	10858.245117
501.703125	10711.185547
499.695313	10754.709961
497.687500	10806.925781
495.679688	10793.151367
493.669922	10835.375977
491.660156	10746.958984
489.650391	10989.408203
487.638672	10881.099609
485.628906	10979.197266
483.617188	10934.323242
481.605469	10780.126953
479.591797	10755.194336
477.580078	11009.706055
475.566406	10940.029297
473.550781	10825.696289
471.537109	10824.350586
469.521484	10777.096680
467.507813	10722.421875
465.490234	10807.908203
463.474609	10801.603516
461.457031	10862.236328
459.441406	10811.304688
457.421875	10917.745117
455.404297	10958.483398
453.384766	10746.573242
451.367188	10600.380859
449.345703	10717.904297
447.326172	10834.131836
445.306641	10749.878906
443.285156	10888.303711
441.263672	10780.580078
439.240234	10733.485352
437.218750	10997.881836
435.195313	11268.328125
433.171875	11485.521484
431.146484	11469.173828
429.123047	11793.638672
427.097656	11592.044922
425.072266	11695.397461
423.044922	11676.541016
421.019531	11444.276367
418.992188	11714.083008
416.964844	11760.581055
414.935547	11868.690430
412.908203	11906.499023
410.878906	12355.818359
408.849609	12899.771484
406.820313	12767.345703
404.789063	13081.922852
402.757813	13306.487305
400.726563	13884.135742
398.695313	15069.294922
396.662109	16292.010742
394.628906	17810.503906
392.595703	19473.333984
390.562500	21223.855469
388.527344	20175.416016
386.492188	17939.458984
384.457031	15288.203125
382.421875	13533.416992
380.384766	12608.156250
378.347656	12223.384766
376.310547	11995.864258
374.273438	12076.373047
372.234375	12469.592773
370.195313	12600.216797
368.156250	12871.751953
366.117188	12456.826172
364.076172	12442.769531
362.035156	12067.345703
359.994141	11561.061523
357.953125	11648.851563
355.910156	12045.068359
353.867188	12219.583984
351.824219	12400.129883
349.779297	12749.386719
347.736328	12575.071289
345.691406	12728.495117
343.644531	13342.651367
341.599609	13248.963867
339.552734	13257.944336
337.505859	13577.155273
335.458984	14672.833008
333.412109	16007.250977
331.363281	16110.739258
329.314453	15303.896484
327.265625	14388.874023
325.214844	13668.215820
323.164063	12919.865234
321.113281	12422.996094
319.062500	12112.832031
317.009766	12044.065430
314.958984	12103.233398
312.906250	12081.994141
310.851563	12312.790039
308.798828	12172.218750
306.744141	11927.058594
304.689453	11594.419922
302.632813	11253.428711
300.578125	11167.968750
298.521484	10967.055664
296.464844	10868.334961
294.406250	11135.415039
292.349609	11200.699219
290.291016	11378.901367
288.232422	11486.587891
286.171875	11623.353516
284.113281	11638.687500
282.052734	11576.359375
279.990234	11655.983398
277.929688	11552.444336
275.867188	11525.337891
273.804688	11620.667969
271.742188	11514.785156
269.677734	11362.915039
267.615234	11354.042969
265.550781	11513.492188
263.484375	11599.011719
261.419922	11828.516602
259.353516	12246.668945
257.287109	12571.462891
255.218750	12871.904297
253.152344	13449.083984
251.083984	14278.618164
249.015625	15521.052734
246.945313	17445.509766
244.876953	20354.669922
242.806641	26248.822266
240.736328	37906.183594
238.664063	53624.171875
236.591797	61908.175781
234.519531	54117.375000
232.447266	39287.957031
230.375000	27172.990234
228.300781	19694.437500
226.226563	16247.434570
224.150391	14513.121094
222.076172	13257.902344
220.000000	12659.655273
217.923828	12031.606445
215.847656	11792.665039
213.769531	11517.739258
211.691406	11459.506836
209.613281	11501.133789
207.533203	11207.242188
205.455078	10878.632813
203.375000	10940.799805
201.292969	10796.261719
199.212891	10898.056641
197.130859	10904.920898
195.048828	10638.024414
192.966797	10667.754883
190.882813	10627.862305
188.798828	10697.167969
186.714844	10767.636719
184.630859	10797.294922
182.544922	10772.988281
180.458984	10842.178711
178.373047	10798.697266
176.285156	10645.022461
174.199219	10754.907227
172.109375	10555.818359
170.021484	10585.463867
167.933594	10750.324219
165.843750	10722.472656
163.753906	10912.329102
161.662109	11115.241211
159.572266	11399.343750
157.480469	11370.151367
155.386719	12354.262695
153.294922	16663.677734
151.201172	21127.351563
149.107422	20179.900391
147.013672	17201.246094
144.917969	16195.598633
142.824219	14550.964844
140.726563	12333.434570
138.630859	11363.180664
136.533203	10852.408203
134.435547	10778.122070
132.337891	10795.621094
130.240234	10542.692383
128.140625	10790.094727
126.041016	10989.741211
123.941406	11589.241211
121.839844	13412.986328
119.738281	15435.668945
117.636719	15007.077148
115.535156	13048.295898
113.431641	11397.235352
111.328125	10979.511719
109.224609	10765.184570
107.119141	10697.077148
105.013672	10835.645508
102.908203	11173.605469
100.802734	11361.828125
98.695313	11560.630859
96.587891	11530.359375
94.480469	11762.221680
92.373047	11830.326172
90.263672	11528.531250
88.154297	11256.519531
86.044922	10886.303711
83.933594	10780.428711
81.822266	10146.441406
79.710938	10153.280273
77.597656	9963.634766
75.486328	9828.516602
73.373047	9770.361328
71.257813	9699.224609
69.144531	9630.488281
67.029297	9657.532227
64.914063	9579.383789
62.798828	9762.375000
60.681641	9642.894531
58.564453	9665.175781
56.447266	9615.430664
54.328125	9628.260742
52.208984	9768.513672
50.089844	9684.564453
47.970703	9600.658203
45.849609	9737.263672
43.728516	9627.452148
41.607422	9570.721680
39.484375	9590.592773
37.363281	9685.828125
35.238281	9708.008789
33.115234	9603.045898
30.990234	9870.011719
28.865234	9743.879883
26.740234	9762.484375
24.615234	9637.618164
22.488281	9425.822266
20.361328	9690.121094
18.232422	9828.557617
16.105469	9653.286133
13.976563	9655.430664
11.845703	9846.590820
9.716797	9660.883789
7.585938	9667.710938
5.455078	9770.726563
3.322266	10203.238281
1.191406	10397.504883
-0.941406	10290.419922
-3.076172	10230.263672
-5.208984	9903.026367
-7.343750	9723.534180
-9.478516	9662.398438
-11.615234	9659.823242
-13.750000	9713.420898
-15.886719	9649.989258
-18.025391	9758.530273
-20.162109	9610.921875
-22.300781	9634.071289
-24.439453	9645.517578
-26.580078	9696.681641
-28.720703	10315.512695
-30.861328	9989.268555
-33.001953	9894.357422
-35.144531	9631.423828
-37.287109	9849.369141
-39.429688	9594.749023
-41.574219	9697.126953
-43.718750	9661.870117
-45.863281	9779.322266
-48.007813	9675.305664
-50.154297	9720.458984
-52.300781	9838.957031
-54.447266	9788.560547
-56.595703	9767.289063
-58.744141	9690.167969
-60.892578	9708.485352
-63.042969	9859.379883
-65.191406	9789.265625
-67.343750	9749.410156
-69.494141	9650.305664
-71.646484	9777.805664
-73.798828	9665.965820
-75.951172	9691.203125
-78.105469	9736.158203
-80.259766	9811.260742
-82.414063	9902.563477
-84.568359	9923.057617
-86.724609	9759.163086
-88.880859	10056.748047
-91.039063	9924.193359
-93.197266	9800.976563
-95.355469	9855.048828
-97.513672	9795.603516
-99.673828	9591.477539
-101.833984	9848.094727
-103.994141	9791.006836
-106.154297	9869.285156
-108.316406	9903.574219
-110.478516	9677.718750
-112.642578	9636.910156
-114.806641	9772.907227
-116.970703	9645.453125
-119.134766	9777.902344
-121.300781	9662.056641
-123.466797	9681.312500
-125.632813	9787.094727
-127.800781	9703.633789
-129.968750	9810.499023
-132.136719	9716.696289
-134.304688	9677.113281
-136.474609	9768.909180
-138.646484	9546.168945
-140.816406	9727.770508
-142.988281	9669.796875
-145.160156	9695.874023
-147.332031	9711.578125
-149.505859	9784.788086
-151.679688	9777.452148
-153.853516	9712.632813
-156.029297	9938.638672
-158.205078	9933.554688
-160.380859	9856.101563
-162.558594	9696.002930
-164.736328	9794.310547
-166.914063	9726.133789
-169.091797	9780.769531
-171.271484	9878.960938
-173.451172	9930.076172
-175.632813	9772.500977
-177.814453	9670.027344
-179.996094	9666.149414
-182.177734	9887.933594
-184.361328	9935.522461
-186.544922	9783.877930
-188.728516	9808.573242
-190.914063	9796.636719
-193.099609	9815.587891
-195.285156	9745.329102
-197.472656	9702.543945
-199.660156	9796.928711
-201.847656	9781.569336
-204.037109	9689.684570
-206.226563	9951.844727
