#Wave		#Intensity
1766.472656	15224.488281
1764.732422	15451.718750
1762.994141	15640.416992
1761.255859	15420.741211
1759.517578	15524.562500
1757.777344	15442.943359
1756.037109	15555.339844
1754.296875	15485.228516
1752.556641	15586.080078
1750.816406	15684.021484
1749.076172	15290.803711
1747.333984	15408.854492
1745.593750	15383.305664
1743.851563	15419.479492
1742.109375	15728.299805
1740.367188	15445.864258
1738.623047	15358.623047
1736.880859	15331.649414
1735.138672	15273.129883
1733.394531	15208.890625
1731.650391	15445.727539
1729.906250	15390.073242
1728.162109	15456.249023
1726.416016	15296.002930
1724.671875	15117.183594
1722.925781	15272.167969
1721.181641	15311.090820
1719.435547	15269.810547
1717.689453	15331.619141
1715.941406	15424.894531
1714.195313	15281.990234
1712.449219	15199.230469
1710.701172	15312.497070
1708.953125	15085.278320
1707.205078	15024.036133
1705.457031	15416.098633
1703.708984	15150.367188
1701.958984	15406.467773
1700.210938	15065.075195
1698.460938	15282.512695
1696.710938	14824.099609
1694.960938	15070.064453
1693.210938	14981.742188
1691.458984	14857.748047
1689.708984	15144.969727
1687.957031	15019.555664
1686.205078	15042.609375
1684.453125	14967.193359
1682.701172	14759.116211
1680.947266	14611.020508
1679.195313	14856.600586
1677.441406	14913.866211
1675.687500	15183.535156
1673.935547	14871.528320
1672.179688	14965.804688
1670.425781	14913.276367
1668.671875	15594.469727
1666.916016	15115.939453
1665.160156	14856.897461
1663.404297	14896.964844
1661.648438	14806.039063
1659.892578	14700.907227
1658.136719	14590.116211
1656.378906	14835.084961
1654.621094	14795.435547
1652.863281	14778.553711
1651.105469	14609.507813
1649.347656	14845.750977
1647.589844	14661.108398
1645.830078	14553.282227
1644.070313	14620.287109
1642.312500	14501.132813
1640.552734	14654.771484
1638.791016	14897.832031
1637.031250	14642.355469
1635.269531	14584.321289
1633.509766	14638.451172
1631.748047	14581.851563
1629.986328	14528.107422
1628.224609	14436.072266
1626.460938	14470.316406
1624.699219	14496.034180
1622.935547	14476.363281
1621.171875	14426.923828
1619.408203	14723.364258
1617.644531	14533.585938
1615.880859	14550.750000
1614.115234	14373.816406
1612.351563	14830.092773
1610.585938	14514.380859
1608.820313	14307.808594
1607.054688	14480.703125
1605.287109	14203.436523
1603.521484	14414.489258
1601.753906	14502.366211
1599.986328	14506.746094
1598.218750	14323.013672
1596.451172	14490.037109
1594.683594	14388.371094
1592.914063	14432.334961
1591.144531	14414.094727
1589.376953	14578.137695
1587.605469	14121.916016
1585.835938	14293.008789
1584.066406	14209.833008
1582.294922	14226.934570
1580.525391	13961.686523
1578.753906	13995.759766
1576.982422	14182.221680
1575.210938	14073.733398
1573.437500	13999.137695
1571.666016	14129.070313
1569.892578	14432.392578
1568.119141	14252.024414
1566.345703	14177.439453
1564.572266	13968.995117
1562.796875	13971.982422
1561.023438	13986.235352
1559.248047	14149.781250
1557.472656	14120.333008
1555.697266	14261.257813
1553.919922	13940.401367
1552.144531	14119.300781
1550.367188	14326.272461
1548.591797	13949.302734
1546.814453	14050.724609
1545.035156	13837.082031
1543.257813	13994.724609
1541.480469	13921.750000
1539.701172	13920.483398
1537.921875	13988.073242
1536.142578	14006.458008
1534.363281	13736.864258
1532.582031	13922.415039
1530.802734	13887.434570
1529.021484	13945.124023
1527.240234	13671.526367
1525.458984	13734.841797
1523.677734	14091.379883
1521.894531	13680.426758
1520.113281	13703.021484
1518.330078	14017.280273
1516.546875	13692.095703
1514.763672	13816.993164
1512.980469	13794.685547
1511.195313	13678.503906
1509.410156	13570.769531
1507.626953	13583.531250
1505.839844	13792.337891
1504.054688	13805.045898
1502.269531	13677.762695
1500.482422	13696.080078
1498.697266	13645.823242
1496.910156	13406.716797
1495.121094	13674.043945
1493.333984	13695.134766
1491.546875	13495.299805
1489.757813	13633.836914
1487.968750	13805.859375
1486.179688	13650.828125
1484.390625	13494.458984
1482.601563	13389.831055
1480.810547	13540.807617
1479.019531	13616.324219
1477.228516	13380.502930
1475.437500	13423.915039
1473.646484	13311.018555
1471.855469	13492.541992
1470.062500	13527.528320
1468.269531	13229.188477
1466.476563	13399.458008
1464.683594	13325.699219
1462.890625	13320.261719
1461.095703	13116.947266
1459.300781	13530.906250
1457.505859	13505.922852
1455.710938	13131.388672
1453.916016	13254.082031
1452.121094	13231.944336
1450.324219	13255.744141
1448.527344	13250.309570
1446.730469	13153.050781
1444.933594	13034.962891
1443.134766	13051.820313
1441.337891	13256.375977
1439.539063	13059.092773
1437.740234	13075.927734
1435.941406	13322.036133
1434.142578	13108.179688
1432.341797	13386.125977
1430.541016	13127.898438
1428.742188	13165.516602
1426.941406	13018.488281
1425.138672	13171.306641
1423.337891	13355.976563
1421.535156	13165.983398
1419.732422	13154.997070
1417.929688	13005.333984
1416.126953	13295.253906
1414.324219	13278.696289
1412.519531	12826.955078
1410.716797	12857.607422
1408.912109	12846.683594
1407.107422	12927.178711
1405.300781	13143.351563
1403.496094	12825.000977
1401.689453	12855.611328
1399.882813	12940.182617
1398.076172	12954.148438
1396.269531	12972.255859
1394.460938	12882.469727
1392.654297	13005.676758
1390.845703	12842.640625
1389.037109	13003.123047
1387.228516	12989.405273
1385.417969	12837.519531
1383.609375	12888.764648
1381.798828	12806.014648
1379.988281	12755.055664
1378.177734	12826.988281
1376.367188	12893.368164
1374.554688	12847.936523
1372.742188	12883.926758
1370.929688	12826.096680
1369.117188	12737.947266
1367.304688	12594.676758
1365.492188	12997.385742
1363.677734	12647.370117
1361.863281	12728.818359
1360.048828	12558.104492
1358.234375	12543.112305
1356.417969	12493.694336
1354.603516	12707.280273
1352.787109	12806.517578
1350.970703	12608.427734
1349.154297	12422.801758
1347.335938	12544.041992
1345.519531	12746.381836
1343.701172	12703.855469
1341.882813	12629.721680
1340.064453	12708.198242
1338.244141	12558.502930
1336.425781	12757.872070
1334.605469	12490.082031
1332.785156	12681.137695
1330.964844	12423.083984
1329.144531	12512.476563
1327.322266	12575.750000
1325.500000	12379.627930
1323.677734	12330.392578
1321.855469	12496.539063
1320.033203	12299.179688
1318.208984	12351.453125
1316.386719	12462.649414
1314.562500	12122.874023
1312.738281	12191.588867
1310.912109	12143.822266
1309.087891	12264.549805
1307.261719	12367.421875
1305.435547	12314.166016
1303.609375	12181.536133
1301.783203	12206.346680
1299.955078	12233.881836
1298.128906	12220.363281
1296.300781	12018.103516
1294.472656	12127.700195
1292.644531	12223.578125
1290.814453	12238.769531
1288.984375	12329.113281
1287.156250	12195.348633
1285.326172	12258.340820
1283.494141	12057.724609
1281.664063	12254.525391
1279.832031	12127.707031
1278.000000	12104.668945
1276.167969	11943.819336
1274.335938	12223.689453
1272.503906	12146.081055
1270.669922	12282.600586
1268.835938	12097.301758
1267.001953	12067.472656
1265.167969	12044.468750
1263.332031	12052.810547
1261.498047	12024.366211
1259.662109	11946.903320
1257.826172	11952.532227
1255.990234	11925.484375
1254.152344	12014.136719
1252.316406	11925.848633
1250.478516	11836.235352
1248.640625	11787.465820
1246.802734	11995.737305
1244.962891	11927.915039
1243.123047	12025.958984
1241.285156	11913.308594
1239.445313	11902.610352
1237.603516	11834.860352
1235.763672	11765.779297
1233.921875	11634.263672
1232.080078	11756.670898
1230.238281	11931.958008
1228.396484	12118.025391
1226.554688	11875.290039
1224.710938	11846.971680
1222.867188	11876.977539
1221.023438	11784.943359
1219.179688	11805.457031
1217.333984	11651.132813
1215.490234	11622.884766
1213.644531	11961.763672
1211.798828	11982.215820
1209.951172	11612.679688
1208.105469	11630.487305
1206.257813	11761.979492
1204.410156	11598.413086
1202.562500	11817.792969
1200.714844	11516.313477
1198.865234	11375.890625
1197.017578	11507.289063
1195.167969	11571.041992
1193.318359	11556.379883
1191.466797	11533.615234
1189.617188	11405.491211
1187.765625	11423.284180
1185.914063	11472.125000
1184.062500	11726.143555
1182.210938	11517.098633
1180.357422	11488.965820
1178.503906	11613.294922
1176.650391	11523.104492
1174.796875	11457.224609
1172.943359	11380.585938
1171.087891	11169.183594
1169.232422	11336.565430
1167.376953	11444.588867
1165.521484	11332.989258
1163.666016	11396.519531
1161.808594	11283.629883
1159.951172	11422.527344
1158.093750	11269.300781
1156.236328	11180.728516
1154.378906	11097.575195
1152.519531	11439.486328
1150.660156	11432.959961
1148.800781	11421.057617
1146.941406	11325.821289
1145.080078	11190.309570
1143.220703	11882.491211
1141.359375	11436.618164
1139.498047	11618.109375
1137.634766	11412.827148
1135.773438	10982.110352
1133.910156	11093.788086
1132.046875	11061.843750
1130.183594	11354.556641
1128.320313	10983.237305
1126.455078	11090.790039
1124.589844	11150.030273
1122.724609	11300.387695
1120.859375	11170.607422
1118.994141	10939.061523
1117.126953	10994.260742
1115.259766	11074.877930
1113.392578	11325.494141
1111.525391	11095.451172
1109.656250	10906.994141
1107.789063	10908.613281
1105.919922	11058.713867
1104.050781	10939.929688
1102.181641	10882.704102
1100.310547	11013.992188
1098.439453	10876.581055
1096.568359	10963.714844
1094.697266	11032.105469
1092.826172	10860.051758
1090.953125	10820.269531
1089.082031	10865.947266
1087.208984	11002.367188
1085.333984	10895.853516
1083.460938	10754.698242
1081.585938	10903.052734
1079.712891	10956.657227
1077.837891	10771.579102
1075.960938	10959.817383
1074.085938	10828.125977
1072.208984	10968.299805
1070.332031	11043.137695
1068.455078	10868.893555
1066.578125	10765.294922
1064.699219	10870.742188
1062.822266	10948.192383
1060.943359	10774.117188
1059.064453	10722.508789
1057.183594	10721.464844
1055.304688	10790.895508
1053.423828	10654.229492
1051.542969	10713.008789
1049.662109	10672.095703
1047.779297	10773.357422
1045.896484	10711.194336
1044.015625	10804.431641
1042.130859	10630.761719
1040.248047	10860.694336
1038.365234	10851.646484
1036.480469	10814.738281
1034.595703	10716.826172
1032.710938	10624.260742
1030.824219	10623.224609
1028.939453	10730.887695
1027.052734	10827.898438
1025.166016	10848.013672
1023.279297	10738.294922
1021.390625	10790.206055
1019.503906	10816.933594
1017.615234	10754.949219
1015.726563	10694.315430
1013.835938	10694.578125
1011.947266	10472.581055
1010.056641	10594.575195
1008.166016	10527.415039
1006.275391	10798.735352
1004.384766	10821.438477
1002.492188	10710.659180
1000.599609	10593.323242
998.707031	10494.530273
996.814453	10370.689453
994.919922	10437.026367
993.027344	10455.812500
991.132813	10545.853516
989.238281	10465.648438
987.341797	10571.473633
985.447266	10516.354492
983.550781	10640.578125
981.654297	10638.195313
979.757813	10584.412109
977.859375	10560.957031
975.962891	10554.637695
974.064453	10531.198242
972.166016	10505.133789
970.267578	10614.676758
968.367188	10306.943359
966.466797	10458.586914
964.566406	10460.185547
962.666016	10443.368164
960.765625	10408.147461
958.863281	10376.885742
956.960938	10311.461914
955.058594	10214.528320
953.156250	10235.879883
951.253906	10556.702148
949.349609	10539.881836
947.445313	10593.964844
945.541016	10711.029297
943.634766	10570.823242
941.730469	10484.472656
939.824219	10328.636719
937.917969	10363.030273
936.011719	10480.008789
934.103516	10454.050781
932.197266	10529.016602
930.289063	10311.758789
928.380859	10305.502930
926.470703	10159.113281
924.562500	10179.080078
922.652344	10133.582031
920.742188	10183.644531
918.832031	10312.193359
916.919922	10326.870117
915.009766	10083.882813
913.097656	10354.892578
911.185547	10510.735352
909.271484	10431.244141
907.359375	10457.632813
905.445313	10229.255859
903.531250	10289.634766
901.617188	10351.291016
899.701172	10493.861328
897.787109	10345.297852
895.871094	10340.344727
893.955078	10387.578125
892.037109	10351.310547
890.121094	10149.444336
888.203125	10274.911133
886.285156	10647.977539
884.367188	10537.399414
882.447266	10305.703125
880.529297	10259.076172
878.609375	10265.863281
876.689453	10068.234375
874.767578	10128.428711
872.847656	10179.485352
870.925781	10195.386719
869.003906	10330.955078
867.082031	10472.961914
865.158203	10311.955078
863.234375	10170.519531
861.312500	10047.340820
859.386719	10259.442383
857.462891	10301.274414
855.537109	10174.250977
853.613281	10053.777344
851.687500	10124.182617
849.759766	10120.579102
847.833984	10231.159180
845.906250	10189.910156
843.978516	10234.277344
842.050781	10256.580078
840.123047	10308.688477
838.193359	10244.125000
836.263672	10088.886719
834.333984	10321.065430
832.404297	10230.636719
830.472656	10167.441406
828.542969	10021.419922
826.611328	10045.016602
824.679688	10188.942383
822.746094	10339.271484
820.814453	10236.021484
818.880859	10209.112305
816.947266	10076.203125
815.011719	10879.137695
813.078125	10415.325195
811.142578	10219.152344
809.207031	10087.649414
807.271484	10068.552734
805.333984	10261.193359
803.398438	10243.354492
801.460938	10080.992188
799.523438	10199.956055
797.583984	10453.009766
795.646484	10271.364258
793.707031	10137.503906
791.767578	10093.931641
789.828125	10082.594727
787.886719	10002.978516
785.945313	10183.589844
784.003906	10088.531250
782.062500	10176.338867
780.121094	10328.465820
778.177734	10463.791016
776.234375	10141.021484
774.291016	10154.126953
772.347656	10090.063477
770.402344	10074.886719
768.458984	10327.083008
766.513672	10180.773438
764.566406	10015.256836
762.621094	10235.176758
760.673828	10140.355469
758.726563	9983.947266
756.779297	10297.424805
754.832031	10289.919922
752.882813	10299.095703
750.933594	10264.653320
748.984375	10203.293945
747.035156	10181.708984
745.083984	10098.602539
743.134766	10150.099609
741.183594	10158.007813
739.230469	10204.340820
737.279297	10201.985352
735.326172	10276.454102
733.373047	10157.591797
731.419922	10137.328125
729.466797	10027.506836
727.511719	10315.571289
725.556641	10117.512695
723.601563	10122.844727
721.646484	10038.691406
719.689453	10027.422852
717.734375	10299.816406
715.777344	10025.337891
713.818359	10116.249023
711.861328	9904.503906
709.902344	10028.588867
707.943359	10041.581055
705.984375	10221.716797
704.025391	10299.715820
702.064453	10171.066406
700.103516	10243.937500
698.142578	10194.395508
696.181641	10121.934570
694.218750	10145.070313
692.255859	10253.543945
690.292969	10307.202148
688.330078	10192.759766
686.367188	10233.674805
684.402344	10126.935547
682.437500	10091.500000
680.472656	10310.502930
678.505859	10193.642578
676.541016	10112.438477
674.574219	10108.815430
672.607422	10092.484375
670.638672	10118.089844
668.671875	10011.567383
666.703125	10203.554688
664.734375	10028.492188
662.763672	10061.702148
660.794922	10074.587891
658.824219	9984.689453
656.853516	9973.482422
654.882813	10133.497070
652.910156	9978.976563
650.939453	10092.008789
648.966797	9964.183594
646.992188	10116.443359
645.019531	10083.679688
643.044922	10080.059570
641.070313	10059.978516
639.095703	9933.570313
637.121094	9946.437500
635.144531	9946.643555
633.167969	10055.640625
631.191406	9850.934570
629.214844	10110.367188
627.238281	9949.986328
625.259766	10106.902344
623.281250	10079.266602
621.300781	10004.902344
619.322266	10070.758789
617.341797	10006.530273
615.361328	9865.327148
613.380859	9719.140625
611.400391	9975.525391
609.417969	9950.480469
607.435547	9916.618164
605.453125	9900.422852
603.468750	9996.425781
601.486328	9918.462891
599.501953	10038.353516
597.517578	10080.086914
595.531250	9926.591797
593.546875	10076.611328
591.560547	10032.703125
589.574219	9987.555664
587.587891	9952.495117
585.599609	10267.150391
583.611328	10044.651367
581.623047	9960.562500
579.634766	10085.178711
577.644531	10219.789063
575.656250	10000.018555
573.666016	9991.382813
571.673828	10099.543945
569.683594	10110.975586
567.691406	10222.821289
565.699219	10230.451172
563.707031	10150.249023
561.714844	10014.891602
559.720703	10027.578125
557.726563	9948.730469
555.732422	10263.513672
553.738281	10351.319336
551.742188	10189.756836
549.746094	10247.474609
547.750000	10350.246094
545.753906	10156.243164
543.755859	10266.495117
541.757813	10207.753906
539.759766	10291.665039
537.761719	10061.581055
535.761719	10151.738281
533.761719	9900.539063
531.761719	10101.933594
529.761719	10099.540039
527.759766	10098.396484
525.759766	10018.561523
523.757813	9991.211914
521.753906	9958.878906
519.751953	9983.975586
517.748047	10068.957031
515.744141	10142.667969
513.740234	10010.543945
511.734375	10185.235352
509.730469	10064.381836
507.724609	10053.265625
505.716797	10253.987305
503.710938	10023.570313
501.703125	9921.546875
499.695313	9972.729492
497.687500	10072.437500
495.679688	10259.218750
493.669922	10087.550781
491.660156	10054.047852
489.650391	10215.821289
487.638672	10168.624023
485.628906	10184.846680
483.617188	10024.579102
481.605469	10114.134766
479.591797	10112.962891
477.580078	10336.580078
475.566406	10206.224609
473.550781	10106.961914
471.537109	10054.906250
469.521484	10155.484375
467.507813	9985.596680
465.490234	10191.553711
463.474609	10020.495117
461.457031	10185.437500
459.441406	10004.546875
457.421875	10033.125000
455.404297	10282.170898
453.384766	10009.743164
451.367188	10056.867188
449.345703	10117.583008
447.326172	10205.492188
445.306641	10143.659180
443.285156	10184.515625
441.263672	10074.488281
439.240234	9902.697266
437.218750	10154.933594
435.195313	10398.397461
433.171875	10682.510742
431.146484	10768.870117
429.123047	10988.544922
427.097656	10964.914063
425.072266	10919.078125
423.044922	10927.554688
421.019531	10594.312500
418.992188	10860.625000
416.964844	10987.474609
414.935547	11051.393555
412.908203	10993.268555
410.878906	11425.559570
408.849609	11715.978516
406.820313	11724.234375
404.789063	11834.676758
402.757813	11957.374023
400.726563	12084.932617
398.695313	12601.218750
396.662109	13247.637695
394.628906	14658.647461
392.595703	16441.498047
390.562500	18562.730469
388.527344	17940.119141
386.492188	16081.874023
384.457031	14025.547852
382.421875	12431.931641
380.384766	11741.421875
378.347656	11288.128906
376.310547	11247.349609
374.273438	11332.947266
372.234375	11727.573242
370.195313	11860.830078
368.156250	12045.507813
366.117188	11929.825195
364.076172	11658.586914
362.035156	11166.980469
359.994141	10930.346680
357.953125	11160.320313
355.910156	11365.697266
353.867188	11345.794922
351.824219	11371.169922
349.779297	11841.774414
347.736328	11886.579102
345.691406	11856.781250
343.644531	12025.008789
341.599609	12068.508789
339.552734	12179.178711
337.505859	12113.910156
335.458984	12927.870117
333.412109	13920.888672
331.363281	13783.225586
329.314453	13373.521484
327.265625	12774.929688
325.214844	12218.094727
323.164063	11812.726563
321.113281	11418.526367
319.062500	11341.383789
317.009766	11197.264648
314.958984	11278.566406
312.906250	11610.698242
310.851563	11544.534180
308.798828	11502.746094
306.744141	11240.713867
304.689453	10909.460938
302.632813	10589.316406
300.578125	10499.155273
298.521484	10310.564453
296.464844	10210.790039
294.406250	10605.620117
292.349609	10543.478516
290.291016	10608.891602
288.232422	10619.629883
286.171875	10938.699219
284.113281	10963.911133
282.052734	10835.015625
279.990234	10920.888672
277.929688	10828.446289
275.867188	10766.358398
273.804688	10763.693359
271.742188	10785.264648
269.677734	10648.114258
267.615234	10653.953125
265.550781	10881.388672
263.484375	10859.319336
261.419922	11141.050781
259.353516	11209.676758
257.287109	11538.357422
255.218750	11681.831055
253.152344	12051.336914
251.083984	12919.901367
249.015625	13530.616211
246.945313	15049.607422
244.876953	17182.671875
242.806641	21502.876953
240.736328	29234.013672
238.664063	40035.566406
236.591797	46220.863281
234.519531	42159.386719
232.447266	32146.556641
230.375000	22879.089844
228.300781	17142.371094
226.226563	14474.570313
224.150391	13057.591797
222.076172	12137.618164
220.000000	11609.500977
217.923828	11117.767578
215.847656	11139.054688
213.769531	10739.139648
211.691406	10812.240234
209.613281	10854.030273
207.533203	10608.400391
205.455078	10374.914063
203.375000	10419.179688
201.292969	10293.998047
199.212891	10435.561523
197.130859	10303.228516
195.048828	10164.957031
192.966797	10226.015625
190.882813	10035.025391
188.798828	10240.054688
186.714844	10349.021484
184.630859	10219.296875
182.544922	10215.516602
180.458984	10296.833984
178.373047	10237.912109
176.285156	10116.724609
174.199219	10253.091797
172.109375	10099.628906
170.021484	10050.385742
167.933594	10197.429688
165.843750	10187.665039
163.753906	10272.397461
161.662109	10591.467773
159.572266	10825.491211
157.480469	10746.245117
155.386719	11460.463867
153.294922	14435.721680
151.201172	16991.455078
149.107422	16612.208984
147.013672	15419.048828
144.917969	15177.630859
142.824219	13780.226563
140.726563	11850.355469
138.630859	10803.905273
136.533203	10425.608398
134.435547	10414.599609
132.337891	10265.373047
130.240234	10250.833008
128.140625	10400.650391
126.041016	10340.834961
123.941406	10904.790039
121.839844	12425.249023
119.738281	13829.521484
117.636719	13149.182617
115.535156	11693.879883
113.431641	10385.547852
111.328125	9955.010742
109.224609	9904.919922
107.119141	9784.767578
105.013672	9815.499023
102.908203	9529.206055
100.802734	9747.527344
98.695313	9825.706055
96.587891	9477.933594
94.480469	9615.441406
92.373047	9577.381836
90.263672	9360.337891
88.154297	9506.058594
86.044922	9565.208008
83.933594	9768.837891
81.822266	9502.223633
79.710938	9691.552734
77.597656	9500.842773
75.486328	9378.861328
73.373047	9378.790039
71.257813	9596.331055
69.144531	9590.287109
67.029297	9505.044922
64.914063	9429.298828
62.798828	9549.712891
60.681641	9436.194336
58.564453	9373.508789
56.447266	9352.171875
54.328125	9353.268555
52.208984	9466.455078
50.089844	9493.468750
47.970703	9499.238281
45.849609	9497.928711
43.728516	9491.903320
41.607422	9515.337891
39.484375	9370.295898
37.363281	9426.722656
35.238281	9609.103516
33.115234	9574.794922
30.990234	9615.818359
28.865234	9635.640625
26.740234	9556.649414
24.615234	9365.987305
22.488281	9444.631836
20.361328	9511.480469
18.232422	9673.462891
16.105469	9587.505859
13.976563	9479.280273
11.845703	9622.351563
9.716797	9639.756836
7.585938	10364.715820
5.455078	10968.458984
3.322266	12709.481445
1.191406	12477.474609
-0.941406	12470.643555
-3.076172	11356.413086
-5.208984	10200.596680
-7.343750	9709.479492
-9.478516	9761.926758
-11.615234	9548.616211
-13.750000	9533.196289
-15.886719	9570.430664
-18.025391	9563.196289
-20.162109	9463.583984
-22.300781	9493.786133
-24.439453	9485.401367
-26.580078	9502.724609
-28.720703	10081.892578
-30.861328	9840.959961
-33.001953	9821.974609
-35.144531	9588.238281
-37.287109	9644.003906
-39.429688	9401.104492
-41.574219	9649.311523
-43.718750	9438.016602
-45.863281	9742.023438
-48.007813	9497.018555
-50.154297	9471.156250
-52.300781	9592.051758
-54.447266	9573.158203
-56.595703	9631.098633
-58.744141	9520.267578
-60.892578	9554.917969
-63.042969	9741.909180
-65.191406	9684.617188
-67.343750	9675.014648
-69.494141	9558.498047
-71.646484	9569.841797
-73.798828	9424.375000
-75.951172	9469.417969
-78.105469	9462.194336
-80.259766	9555.940430
-82.414063	9638.030273
-84.568359	9883.621094
-86.724609	9676.832031
-88.880859	9871.263672
-91.039063	9794.388672
-93.197266	9547.233398
-95.355469	9652.341797
-97.513672	9733.071289
-99.673828	9428.243164
-101.833984	9566.853516
-103.994141	9578.108398
-106.154297	9676.110352
-108.316406	9666.508789
-110.478516	9636.098633
-112.642578	9449.672852
-114.806641	9731.310547
-116.970703	9583.075195
-119.134766	9701.683594
-121.300781	9550.070313
-123.466797	9562.431641
-125.632813	9691.324219
-127.800781	9531.755859
-129.968750	9815.111328
-132.136719	9619.851563
-134.304688	9460.427734
-136.474609	9594.916992
-138.646484	9422.911133
-140.816406	9508.961914
-142.988281	9514.371094
-145.160156	9522.076172
-147.332031	9712.729492
-149.505859	9621.439453
-151.679688	9599.199219
-153.853516	9581.567383
-156.029297	9753.588867
-158.205078	9643.994141
-160.380859	9728.592773
-162.558594	9613.317383
-164.736328	9664.577148
-166.914063	9630.870117
-169.091797	9637.339844
-171.271484	9649.538086
-173.451172	9566.542969
-175.632813	9527.157227
-177.814453	9427.044922
-179.996094	9461.047852
-182.177734	9748.182617
-184.361328	9692.746094
-186.544922	9659.089844
-188.728516	9715.866211
-190.914063	9705.100586
-193.099609	9730.941406
-195.285156	9657.275391
-197.472656	9572.216797
-199.660156	9674.638672
-201.847656	9661.598633
-204.037109	9650.847656
-206.226563	9779.414063
