#Wave		#Intensity
1766.472656	16728.816406
1764.732422	16889.890625
1762.994141	17411.953125
1761.255859	17243.742188
1759.517578	17112.955078
1757.777344	17216.474609
1756.037109	17209.308594
1754.296875	17137.484375
1752.556641	17289.775391
1750.816406	17064.271484
1749.076172	17093.017578
1747.333984	17166.255859
1745.593750	17042.796875
1743.851563	17197.822266
1742.109375	17311.175781
1740.367188	17140.390625
1738.623047	17164.759766
1736.880859	17014.128906
1735.138672	17133.152344
1733.394531	17061.429688
1731.650391	17148.857422
1729.906250	16969.644531
1728.162109	16717.398438
1726.416016	16942.382813
1724.671875	16694.515625
1722.925781	16824.880859
1721.181641	16654.445313
1719.435547	16826.289063
1717.689453	16731.781250
1715.941406	16862.031250
1714.195313	16778.990234
1712.449219	16794.705078
1710.701172	16904.835938
1708.953125	16661.609375
1707.205078	16798.888672
1705.457031	16856.041016
1703.708984	16614.363281
1701.958984	16778.726563
1700.210938	16724.363281
1698.460938	16838.628906
1696.710938	16415.662109
1694.960938	16458.509766
1693.210938	16574.177734
1691.458984	16616.974609
1689.708984	16678.312500
1687.957031	16462.701172
1686.205078	16489.783203
1684.453125	16508.291016
1682.701172	16369.850586
1680.947266	16174.398438
1679.195313	16458.208984
1677.441406	16619.285156
1675.687500	16479.482422
1673.935547	16332.595703
1672.179688	16426.613281
1670.425781	16569.041016
1668.671875	17185.830078
1666.916016	16521.841797
1665.160156	16309.546875
1663.404297	16439.062500
1661.648438	16391.994141
1659.892578	16299.388672
1658.136719	16276.546875
1656.378906	16174.028320
1654.621094	16398.748047
1652.863281	16161.109375
1651.105469	16195.178711
1649.347656	16163.825195
1647.589844	16085.566406
1645.830078	16086.927734
1644.070313	16216.183594
1642.312500	16169.204102
1640.552734	16008.590820
1638.791016	16318.161133
1637.031250	16034.025391
1635.269531	16035.371094
1633.509766	15974.251953
1631.748047	15910.312500
1629.986328	16179.867188
1628.224609	15836.407227
1626.460938	15820.746094
1624.699219	15867.491211
1622.935547	16070.195313
1621.171875	15915.550781
1619.408203	16044.455078
1617.644531	15932.381836
1615.880859	15843.016602
1614.115234	15845.765625
1612.351563	16260.693359
1610.585938	15985.787109
1608.820313	15917.702148
1607.054688	15992.619141
1605.287109	15676.857422
1603.521484	15833.861328
1601.753906	15804.041992
1599.986328	15764.327148
1598.218750	15793.926758
1596.451172	15812.198242
1594.683594	15756.941406
1592.914063	15657.881836
1591.144531	15988.494141
1589.376953	16187.569336
1587.605469	15627.915039
1585.835938	15685.725586
1584.066406	15716.679688
1582.294922	15484.993164
1580.525391	15466.556641
1578.753906	15563.860352
1576.982422	15419.815430
1575.210938	15682.160156
1573.437500	15542.372070
1571.666016	15526.745117
1569.892578	15633.799805
1568.119141	15594.187500
1566.345703	15571.501953
1564.572266	15560.096680
1562.796875	15435.968750
1561.023438	15502.068359
1559.248047	15563.914063
1557.472656	15176.506836
1555.697266	15415.787109
1553.919922	15397.365234
1552.144531	15453.541016
1550.367188	15605.377930
1548.591797	15460.300781
1546.814453	15211.185547
1545.035156	15277.185547
1543.257813	15248.949219
1541.480469	15314.909180
1539.701172	15250.125977
1537.921875	15408.802734
1536.142578	15242.859375
1534.363281	15057.310547
1532.582031	15029.129883
1530.802734	15092.229492
1529.021484	15343.426758
1527.240234	15115.879883
1525.458984	15080.679688
1523.677734	15223.684570
1521.894531	15062.216797
1520.113281	15007.403320
1518.330078	15252.697266
1516.546875	15036.628906
1514.763672	15172.480469
1512.980469	15043.397461
1511.195313	14886.336914
1509.410156	14963.290039
1507.626953	14947.766602
1505.839844	15005.066406
1504.054688	15010.537109
1502.269531	15071.995117
1500.482422	15245.391602
1498.697266	15031.115234
1496.910156	14886.870117
1495.121094	15033.615234
1493.333984	14950.953125
1491.546875	15057.075195
1489.757813	15115.623047
1487.968750	14851.291992
1486.179688	14844.175781
1484.390625	14767.205078
1482.601563	14659.532227
1480.810547	14949.912109
1479.019531	14895.297852
1477.228516	14642.472656
1475.437500	14585.143555
1473.646484	14571.092773
1471.855469	14667.261719
1470.062500	14623.902344
1468.269531	14434.124023
1466.476563	14625.069336
1464.683594	14631.920898
1462.890625	14598.348633
1461.095703	14447.733398
1459.300781	14546.560547
1457.505859	14557.589844
1455.710938	14348.573242
1453.916016	14510.009766
1452.121094	14401.311523
1450.324219	14447.146484
1448.527344	14412.250977
1446.730469	14419.104492
1444.933594	14325.801758
1443.134766	14171.341797
1441.337891	14332.570313
1439.539063	14208.749023
1437.740234	14392.137695
1435.941406	14314.206055
1434.142578	14184.898438
1432.341797	14402.899414
1430.541016	14399.997070
1428.742188	14315.173828
1426.941406	14292.851563
1425.138672	14369.077148
1423.337891	14450.819336
1421.535156	14310.549805
1419.732422	14292.397461
1417.929688	14271.475586
1416.126953	14168.755859
1414.324219	14325.299805
1412.519531	14143.606445
1410.716797	14007.711914
1408.912109	13867.712891
1407.107422	14107.287109
1405.300781	14294.138672
1403.496094	14029.551758
1401.689453	14004.546875
1399.882813	13980.932617
1398.076172	14116.451172
1396.269531	14013.964844
1394.460938	14070.578125
1392.654297	14163.120117
1390.845703	13954.222656
1389.037109	14021.864258
1387.228516	13949.894531
1385.417969	13981.580078
1383.609375	13927.601563
1381.798828	13904.027344
1379.988281	13787.943359
1378.177734	14015.669922
1376.367188	13968.620117
1374.554688	13849.827148
1372.742188	13896.648438
1370.929688	13776.535156
1369.117188	13715.773438
1367.304688	14074.212891
1365.492188	14050.631836
1363.677734	13912.658203
1361.863281	13847.775391
1360.048828	13814.604492
1358.234375	13748.385742
1356.417969	13859.847656
1354.603516	13713.783203
1352.787109	13766.007813
1350.970703	13688.834961
1349.154297	13569.035156
1347.335938	13614.372070
1345.519531	13742.214844
1343.701172	13648.599609
1341.882813	13777.753906
1340.064453	13869.737305
1338.244141	13701.933594
1336.425781	13685.341797
1334.605469	13488.794922
1332.785156	14012.018555
1330.964844	13691.894531
1329.144531	13425.445313
1327.322266	13506.372070
1325.500000	13430.819336
1323.677734	13434.874023
1321.855469	13519.856445
1320.033203	13357.940430
1318.208984	13266.019531
1316.386719	13459.278320
1314.562500	13215.234375
1312.738281	13156.282227
1310.912109	13269.974609
1309.087891	13278.148438
1307.261719	13353.419922
1305.435547	13278.049805
1303.609375	13362.867188
1301.783203	13283.417969
1299.955078	13194.420898
1298.128906	13249.100586
1296.300781	13015.166992
1294.472656	12998.750977
1292.644531	13125.889648
1290.814453	13024.708008
1288.984375	13195.513672
1287.156250	13083.425781
1285.326172	13146.230469
1283.494141	12922.209961
1281.664063	13245.810547
1279.832031	13109.227539
1278.000000	13144.667969
1276.167969	12999.973633
1274.335938	13066.796875
1272.503906	13132.225586
1270.669922	13088.531250
1268.835938	13115.749023
1267.001953	13054.352539
1265.167969	12893.496094
1263.332031	12817.181641
1261.498047	13021.515625
1259.662109	12968.355469
1257.826172	12894.791016
1255.990234	12655.170898
1254.152344	12847.109375
1252.316406	12781.777344
1250.478516	12740.959961
1248.640625	12936.832031
1246.802734	12683.849609
1244.962891	12641.713867
1243.123047	12920.395508
1241.285156	12966.561523
1239.445313	12844.220703
1237.603516	12778.986328
1235.763672	12743.657227
1233.921875	12992.137695
1232.080078	12846.810547
1230.238281	12833.201172
1228.396484	12763.958008
1226.554688	12815.491211
1224.710938	12937.533203
1222.867188	12791.008789
1221.023438	12659.458984
1219.179688	12532.030273
1217.333984	12759.732422
1215.490234	12464.318359
1213.644531	12920.873047
1211.798828	12670.242188
1209.951172	12465.756836
1208.105469	12607.929688
1206.257813	12599.800781
1204.410156	12475.296875
1202.562500	12591.666016
1200.714844	12587.598633
1198.865234	12303.596680
1197.017578	12592.984375
1195.167969	12464.552734
1193.318359	12434.832031
1191.466797	12574.018555
1189.617188	12348.406250
1187.765625	12371.397461
1185.914063	12448.389648
1184.062500	12561.795898
1182.210938	12443.001953
1180.357422	12367.438477
1178.503906	12273.018555
1176.650391	12383.661133
1174.796875	12161.164063
1172.943359	12232.680664
1171.087891	12072.315430
1169.232422	12265.107422
1167.376953	12281.307617
1165.521484	12305.581055
1163.666016	12231.527344
1161.808594	12068.635742
1159.951172	12175.053711
1158.093750	12035.123047
1156.236328	12041.923828
1154.378906	11974.726563
1152.519531	12258.610352
1150.660156	12333.934570
1148.800781	12235.791016
1146.941406	12216.994141
1145.080078	12007.375000
1143.220703	12632.201172
1141.359375	12292.282227
1139.498047	12277.511719
1137.634766	12391.644531
1135.773438	11968.768555
1133.910156	12163.441406
1132.046875	11950.118164
1130.183594	11986.409180
1128.320313	11798.698242
1126.455078	11957.027344
1124.589844	12054.957031
1122.724609	12017.467773
1120.859375	11989.374023
1118.994141	11785.784180
1117.126953	11922.503906
1115.259766	11843.556641
1113.392578	11974.845703
1111.525391	11851.746094
1109.656250	11704.610352
1107.789063	11776.966797
1105.919922	11758.327148
1104.050781	11893.496094
1102.181641	11825.363281
1100.310547	11852.172852
1098.439453	11836.201172
1096.568359	11699.973633
1094.697266	11722.781250
1092.826172	11721.536133
1090.953125	11815.098633
1089.082031	11707.027344
1087.208984	11663.070313
1085.333984	11793.944336
1083.460938	11604.560547
1081.585938	11696.705078
1079.712891	11668.786133
1077.837891	11622.212891
1075.960938	11591.653320
1074.085938	11558.441406
1072.208984	11657.149414
1070.332031	11706.525391
1068.455078	11605.383789
1066.578125	11690.697266
1064.699219	11789.284180
1062.822266	11853.221680
1060.943359	11599.108398
1059.064453	11534.014648
1057.183594	11697.714844
1055.304688	11558.159180
1053.423828	11527.679688
1051.542969	11390.878906
1049.662109	11373.735352
1047.779297	11484.140625
1045.896484	11555.976563
1044.015625	11516.228516
1042.130859	11427.372070
1040.248047	11552.263672
1038.365234	11654.538086
1036.480469	11590.915039
1034.595703	11427.832031
1032.710938	11425.291016
1030.824219	11405.513672
1028.939453	11324.764648
1027.052734	11650.924805
1025.166016	11290.574219
1023.279297	11375.492188
1021.390625	11546.460938
1019.503906	11508.136719
1017.615234	11415.549805
1015.726563	11395.799805
1013.835938	11484.563477
1011.947266	11312.663086
1010.056641	11459.600586
1008.166016	11365.799805
1006.275391	11425.400391
1004.384766	11387.161133
1002.492188	11527.338867
1000.599609	11499.661133
998.707031	11405.949219
996.814453	11243.607422
994.919922	11188.281250
993.027344	11173.898438
991.132813	11341.642578
989.238281	11364.173828
987.341797	11254.781250
985.447266	11154.667969
983.550781	11324.898438
981.654297	11237.994141
979.757813	11329.049805
977.859375	11363.405273
975.962891	11363.493164
974.064453	11214.750977
972.166016	11192.484375
970.267578	11222.884766
968.367188	11142.711914
966.466797	11217.847656
964.566406	11204.804688
962.666016	11144.416016
960.765625	11190.566406
958.863281	11094.708984
956.960938	11131.647461
955.058594	11043.728516
953.156250	11011.027344
951.253906	11220.026367
949.349609	11138.708984
947.445313	11136.202148
945.541016	11246.581055
943.634766	11153.498047
941.730469	11145.738281
939.824219	11052.716797
937.917969	11043.669922
936.011719	11101.493164
934.103516	11228.764648
932.197266	11207.885742
930.289063	11025.851563
928.380859	11008.954102
926.470703	10825.735352
924.562500	10907.091797
922.652344	10891.539063
920.742188	10933.578125
918.832031	10999.149414
916.919922	11081.697266
915.009766	10842.462891
913.097656	10927.622070
911.185547	11172.231445
909.271484	11163.169922
907.359375	11118.830078
905.445313	11019.638672
903.531250	10919.185547
901.617188	10902.349609
899.701172	11123.126953
897.787109	11008.357422
895.871094	10991.509766
893.955078	10952.489258
892.037109	10926.528320
890.121094	10947.524414
888.203125	10991.977539
886.285156	11207.162109
884.367188	11165.525391
882.447266	11044.429688
880.529297	11004.148438
878.609375	11195.690430
876.689453	10745.265625
874.767578	10943.285156
872.847656	10809.358398
870.925781	10857.644531
869.003906	10834.364258
867.082031	11042.583008
865.158203	10972.460938
863.234375	11066.159180
861.312500	10840.107422
859.386719	10875.321289
857.462891	10876.743164
855.537109	10700.237305
853.613281	10715.978516
851.687500	10726.519531
849.759766	10787.669922
847.833984	10889.015625
845.906250	10865.777344
843.978516	10746.574219
842.050781	10814.143555
840.123047	10964.648438
838.193359	10947.890625
836.263672	10915.589844
834.333984	11003.781250
832.404297	10917.083008
830.472656	10976.744141
828.542969	10790.406250
826.611328	10740.051758
824.679688	10899.347656
822.746094	11068.918945
820.814453	10924.114258
818.880859	10771.615234
816.947266	10855.770508
815.011719	11453.016602
813.078125	10787.485352
811.142578	10799.227539
809.207031	10748.964844
807.271484	10768.457031
805.333984	10785.356445
803.398438	10806.119141
801.460938	10643.627930
799.523438	10783.105469
797.583984	10879.953125
795.646484	10800.084961
793.707031	10894.302734
791.767578	10743.572266
789.828125	10574.868164
787.886719	10782.448242
785.945313	10848.241211
784.003906	10849.614258
782.062500	10802.060547
780.121094	10902.555664
778.177734	10997.854492
776.234375	10772.745117
774.291016	10844.875000
772.347656	10619.901367
770.402344	10722.888672
768.458984	10969.793945
766.513672	10860.605469
764.566406	10730.908203
762.621094	10868.452148
760.673828	10660.471680
758.726563	10638.757813
756.779297	11059.912109
754.832031	10782.726563
752.882813	10666.050781
750.933594	10848.309570
748.984375	10848.374023
747.035156	10706.116211
745.083984	10715.183594
743.134766	10771.665039
741.183594	10628.238281
739.230469	10912.726563
737.279297	10725.788086
735.326172	10774.527344
733.373047	10784.840820
731.419922	10649.250000
729.466797	10632.714844
727.511719	10842.606445
725.556641	10745.460938
723.601563	10700.782227
721.646484	10633.112305
719.689453	10709.890625
717.734375	10823.687500
715.777344	10707.490234
713.818359	10641.155273
711.861328	10634.860352
709.902344	10582.612305
707.943359	10498.480469
705.984375	10786.967773
704.025391	10815.083984
702.064453	10770.490234
700.103516	10815.170898
698.142578	10738.725586
696.181641	10847.114258
694.218750	10764.324219
692.255859	10947.814453
690.292969	10796.262695
688.330078	10737.731445
686.367188	10716.142578
684.402344	10586.382813
682.437500	10447.775391
680.472656	10790.090820
678.505859	10737.982422
676.541016	10699.882813
674.574219	10542.304688
672.607422	10579.251953
670.638672	10696.230469
668.671875	10702.633789
666.703125	10959.232422
664.734375	10559.248047
662.763672	10500.933594
660.794922	10635.556641
658.824219	10413.565430
656.853516	10577.321289
654.882813	10689.000000
652.910156	10403.749023
650.939453	10632.041016
648.966797	10573.795898
646.992188	10609.341797
645.019531	10477.652344
643.044922	10638.584961
641.070313	10672.821289
639.095703	10443.731445
637.121094	10390.666992
635.144531	10418.606445
633.167969	10670.440430
631.191406	10473.178711
629.214844	10555.446289
627.238281	10559.297852
625.259766	10647.824219
623.281250	10500.025391
621.300781	10607.469727
619.322266	10532.998047
617.341797	10647.958984
615.361328	10468.734375
613.380859	10381.723633
611.400391	10571.079102
609.417969	10616.537109
607.435547	10689.717773
605.453125	10551.036133
603.468750	10496.876953
601.486328	10394.851563
599.501953	10599.049805
597.517578	10583.964844
595.531250	10485.764648
593.546875	10602.916992
591.560547	10521.121094
589.574219	10553.886719
587.587891	10455.781250
585.599609	10633.206055
583.611328	10371.633789
581.623047	10531.389648
579.634766	10501.256836
577.644531	10691.065430
575.656250	10453.593750
573.666016	10442.338867
571.673828	10551.650391
569.683594	10432.397461
567.691406	10556.719727
565.699219	10668.432617
563.707031	10556.760742
561.714844	10500.333008
559.720703	10556.796875
557.726563	10543.021484
555.732422	10737.330078
553.738281	10876.404297
551.742188	10596.946289
549.746094	10710.934570
547.750000	10822.362305
545.753906	10565.647461
543.755859	10785.953125
541.757813	10693.300781
539.759766	10735.810547
537.761719	10620.697266
535.761719	10664.452148
533.761719	10473.142578
531.761719	10595.655273
529.761719	10395.703125
527.759766	10540.662109
525.759766	10526.921875
523.757813	10500.699219
521.753906	10669.247070
519.751953	10575.600586
517.748047	10452.048828
515.744141	10459.547852
513.740234	10483.256836
511.734375	10716.444336
509.730469	10579.257813
507.724609	10621.613281
505.716797	10666.439453
503.710938	10645.215820
501.703125	10490.734375
499.695313	10470.805664
497.687500	10621.436523
495.679688	10584.058594
493.669922	10552.919922
491.660156	10615.093750
489.650391	10678.481445
487.638672	10629.929688
485.628906	10782.785156
483.617188	10664.630859
481.605469	10660.844727
479.591797	10606.126953
477.580078	10808.513672
475.566406	10869.255859
473.550781	10620.875977
471.537109	10603.445313
469.521484	10536.392578
467.507813	10430.916992
465.490234	10543.755859
463.474609	10566.031250
461.457031	10672.583984
459.441406	10461.833008
457.421875	10595.614258
455.404297	10643.862305
453.384766	10497.661133
451.367188	10555.810547
449.345703	10581.749023
447.326172	10506.200195
445.306641	10563.064453
443.285156	10660.716797
441.263672	10630.953125
439.240234	10515.897461
437.218750	10813.718750
435.195313	11043.431641
433.171875	11411.397461
431.146484	11591.449219
429.123047	11665.218750
427.097656	11664.880859
425.072266	11629.984375
423.044922	11783.891602
421.019531	11438.107422
418.992188	11631.450195
416.964844	11754.415039
414.935547	11622.145508
412.908203	11794.347656
410.878906	12173.462891
408.849609	12803.688477
406.820313	12779.661133
404.789063	13019.129883
402.757813	13337.260742
400.726563	14074.885742
398.695313	15528.214844
396.662109	17085.392578
394.628906	18688.546875
392.595703	20510.994141
390.562500	22953.281250
388.527344	22024.847656
386.492188	19612.759766
384.457031	16342.053711
382.421875	14016.007813
380.384766	12852.461914
378.347656	12211.111328
376.310547	12144.339844
374.273438	12184.329102
372.234375	12689.131836
370.195313	12907.987305
368.156250	13040.922852
366.117188	12888.231445
364.076172	12540.791992
362.035156	12161.669922
359.994141	11464.311523
357.953125	11583.958984
355.910156	11887.161133
353.867188	11972.377930
351.824219	12259.427734
349.779297	12498.631836
347.736328	12577.516602
345.691406	12512.094727
343.644531	12971.071289
341.599609	12867.699219
339.552734	12951.296875
337.505859	13391.501953
335.458984	14328.480469
333.412109	15443.237305
331.363281	15150.198242
329.314453	14735.278320
327.265625	13978.983398
325.214844	13198.665039
323.164063	12651.615234
321.113281	12152.374023
319.062500	12089.676758
317.009766	11801.600586
314.958984	12024.055664
312.906250	12270.755859
310.851563	12421.149414
308.798828	12416.879883
306.744141	12202.083008
304.689453	11660.117188
302.632813	11164.637695
300.578125	11030.558594
298.521484	10802.932617
296.464844	10693.314453
294.406250	11132.984375
292.349609	11176.403320
290.291016	11197.936523
288.232422	11348.166016
286.171875	11733.821289
284.113281	11743.059570
282.052734	11598.199219
279.990234	11482.520508
277.929688	11439.661133
275.867188	11390.758789
273.804688	11402.485352
271.742188	11469.947266
269.677734	11230.858398
267.615234	11338.296875
265.550781	11541.343750
263.484375	11546.955078
261.419922	11839.409180
259.353516	12228.518555
257.287109	12717.838867
255.218750	12879.161133
253.152344	13651.007813
251.083984	14710.167969
249.015625	16021.380859
246.945313	18071.369141
244.876953	21513.066406
242.806641	28246.224609
240.736328	41347.042969
238.664063	59085.925781
236.591797	69494.804688
234.519531	60992.738281
232.447266	44540.585938
230.375000	30171.845703
228.300781	21538.871094
226.226563	17221.244141
224.150391	15103.526367
222.076172	13789.133789
220.000000	12875.226563
217.923828	12153.209961
215.847656	11911.831055
213.769531	11505.705078
211.691406	11488.381836
209.613281	11425.358398
207.533203	11143.509766
205.455078	10927.922852
203.375000	10928.781250
201.292969	10839.518555
199.212891	10923.283203
197.130859	10817.249023
195.048828	10540.769531
192.966797	10802.196289
190.882813	10360.246094
188.798828	10498.005859
186.714844	10701.666016
184.630859	10617.419922
182.544922	10551.198242
180.458984	10763.074219
178.373047	10454.796875
176.285156	10500.070313
174.199219	10538.132813
172.109375	10513.911133
170.021484	10349.646484
167.933594	10430.794922
165.843750	10575.310547
163.753906	10833.383789
161.662109	11148.724609
159.572266	11319.243164
157.480469	11400.032227
155.386719	12251.500000
153.294922	16145.215820
151.201172	20345.078125
149.107422	19186.486328
147.013672	17095.005859
144.917969	16687.279297
142.824219	14951.843750
140.726563	12490.882813
138.630859	11174.767578
136.533203	10722.460938
134.435547	10821.029297
132.337891	10548.966797
130.240234	10500.999023
128.140625	10599.541016
126.041016	10876.628906
123.941406	11805.884766
121.839844	15073.097656
119.738281	17675.947266
117.636719	16430.828125
115.535156	13931.818359
113.431641	11719.405273
111.328125	10927.216797
109.224609	10728.349609
107.119141	10659.064453
105.013672	10880.774414
102.908203	11165.293945
100.802734	11716.736328
98.695313	11867.981445
96.587891	11717.806641
94.480469	12008.922852
92.373047	12283.286133
90.263672	12067.913086
88.154297	11487.623047
86.044922	10958.579102
83.933594	10671.452148
81.822266	10065.914063
79.710938	10193.534180
77.597656	9915.106445
75.486328	9777.634766
73.373047	9601.193359
71.257813	9610.523438
69.144531	9545.356445
67.029297	9600.792969
64.914063	9445.843750
62.798828	9580.430664
60.681641	9489.345703
58.564453	9419.561523
56.447266	9538.696289
54.328125	9433.524414
52.208984	9541.969727
50.089844	9551.269531
47.970703	9492.163086
45.849609	9446.053711
43.728516	9478.938477
41.607422	9634.353516
39.484375	9443.335938
37.363281	9560.986328
35.238281	9514.908203
33.115234	9511.229492
30.990234	9726.439453
28.865234	9696.819336
26.740234	9577.820313
24.615234	9423.605469
22.488281	9438.753906
20.361328	9499.727539
18.232422	9627.639648
16.105469	9591.030273
13.976563	9503.941406
11.845703	9671.660156
9.716797	9574.028320
7.585938	9553.890625
5.455078	9600.627930
3.322266	9983.926758
1.191406	10177.080078
-0.941406	10105.218750
-3.076172	9939.644531
-5.208984	9721.437500
-7.343750	9759.842773
-9.478516	9628.442383
-11.615234	9559.151367
-13.750000	9521.493164
-15.886719	9414.823242
-18.025391	9646.242188
-20.162109	9567.656250
-22.300781	9569.773438
-24.439453	9430.470703
-26.580078	9595.029297
-28.720703	10309.672852
-30.861328	9928.543945
-33.001953	9786.950195
-35.144531	9568.396484
-37.287109	9666.173828
-39.429688	9380.106445
-41.574219	9609.660156
-43.718750	9455.504883
-45.863281	9631.291992
-48.007813	9463.225586
-50.154297	9502.610352
-52.300781	9621.167969
-54.447266	9704.728516
-56.595703	9764.960938
-58.744141	9526.085938
-60.892578	9628.210938
-63.042969	9740.746094
-65.191406	9728.801758
-67.343750	9740.111328
-69.494141	9513.174805
-71.646484	9637.226563
-73.798828	9415.083008
-75.951172	9512.380859
-78.105469	9644.450195
-80.259766	9559.422852
-82.414063	9640.351563
-84.568359	9764.149414
-86.724609	9683.789063
-88.880859	9837.644531
-91.039063	9656.472656
-93.197266	9672.367188
-95.355469	9764.699219
-97.513672	9718.017578
-99.673828	9512.753906
-101.833984	9651.341797
-103.994141	9691.500000
-106.154297	9691.147461
-108.316406	9626.033203
-110.478516	9715.870117
-112.642578	9620.729492
-114.806641	9563.767578
-116.970703	9617.729492
-119.134766	9634.704102
-121.300781	9540.833984
-123.466797	9542.810547
-125.632813	9731.708984
-127.800781	9627.500000
-129.968750	9824.337891
-132.136719	9737.448242
-134.304688	9604.500977
-136.474609	9636.398438
-138.646484	9334.210938
-140.816406	9550.420898
-142.988281	9567.331055
-145.160156	9558.907227
-147.332031	9612.622070
-149.505859	9680.107422
-151.679688	9722.250977
-153.853516	9576.968750
-156.029297	9681.178711
-158.205078	9749.707031
-160.380859	9661.965820
-162.558594	9611.020508
-164.736328	9490.068359
-166.914063	9661.859375
-169.091797	9648.813477
-171.271484	9742.454102
-173.451172	9659.432617
-175.632813	9675.051758
-177.814453	9529.051758
-179.996094	9443.860352
-182.177734	9783.693359
-184.361328	9729.391602
-186.544922	9780.443359
-188.728516	9679.242188
-190.914063	9686.792969
-193.099609	9774.409180
-195.285156	9706.448242
-197.472656	9565.357422
-199.660156	9666.637695
-201.847656	9563.337891
-204.037109	9578.886719
-206.226563	9803.394531
